#  E (eV)   dos(E)     Int dos(E) EFermi =   -4.592 eV
-117.472  0.3170E-02  0.1585E-03
-117.422  0.2589E-01  0.1453E-02
-117.372  0.1615E+00  0.9527E-02
-117.322  0.7688E+00  0.4797E-01
-117.272  0.2794E+01  0.1877E+00
-117.222  0.7756E+01  0.5755E+00
-117.172  0.1645E+02  0.1398E+01
-117.122  0.2670E+02  0.2733E+01
-117.072  0.3352E+02  0.4409E+01
-117.022  0.3388E+02  0.6103E+01
-116.972  0.3169E+02  0.7687E+01
-116.922  0.3522E+02  0.9448E+01
-116.872  0.4792E+02  0.1184E+02
-116.822  0.6245E+02  0.1497E+02
-116.772  0.6637E+02  0.1829E+02
-116.722  0.5472E+02  0.2102E+02
-116.672  0.3457E+02  0.2275E+02
-116.622  0.1668E+02  0.2358E+02
-116.572  0.6150E+01  0.2389E+02
-116.522  0.1731E+01  0.2398E+02
-116.472  0.3719E+00  0.2400E+02
-116.422  0.6100E-01  0.2400E+02
-116.372  0.7640E-02  0.2400E+02
-116.322  0.7305E-03  0.2400E+02
-116.272  0.5333E-04  0.2400E+02
-116.222  0.2972E-05  0.2400E+02
-116.172  0.1265E-06  0.2400E+02
-116.122  0.4108E-08  0.2400E+02
-116.072  0.1019E-09  0.2400E+02
-116.022  0.1929E-11  0.2400E+02
-115.972  0.2788E-13  0.2400E+02
-115.922  0.3077E-15  0.2400E+02
-115.872  0.2593E-17  0.2400E+02
-115.822  0.1668E-19  0.2400E+02
-115.772  0.8191E-22  0.2400E+02
-115.722  0.3071E-24  0.2400E+02
-115.672  0.8789E-27  0.2400E+02
-115.622  0.1921E-29  0.2400E+02
-115.572  0.3204E-32  0.2400E+02
-115.522  0.4081E-35  0.2400E+02
-115.472  0.3968E-38  0.2400E+02
-115.422  0.2945E-41  0.2400E+02
-115.372  0.1669E-44  0.2400E+02
-115.322  0.7221E-48  0.2400E+02
-115.272  0.2385E-51  0.2400E+02
-115.222  0.6014E-55  0.2400E+02
-115.172  0.1158E-58  0.2400E+02
-115.122  0.1701E-62  0.2400E+02
-115.072  0.1909E-66  0.2400E+02
-115.022  0.1635E-70  0.2400E+02
-114.972  0.1069E-74  0.2400E+02
-114.922  0.5337E-79  0.2400E+02
-114.872  0.3514E-83  0.2400E+02
-114.822  0.1572E-83  0.2400E+02
-114.772  0.1572E-83  0.2400E+02
-114.722  0.1572E-83  0.2400E+02
-114.672  0.1572E-83  0.2400E+02
-114.622  0.1572E-83  0.2400E+02
-114.572  0.1572E-83  0.2400E+02
-114.522  0.1572E-83  0.2400E+02
-114.472  0.1572E-83  0.2400E+02
-114.422  0.1572E-83  0.2400E+02
-114.372  0.1572E-83  0.2400E+02
-114.322  0.1572E-83  0.2400E+02
-114.272  0.1572E-83  0.2400E+02
-114.222  0.1572E-83  0.2400E+02
-114.172  0.1572E-83  0.2400E+02
-114.122  0.1572E-83  0.2400E+02
-114.072  0.1572E-83  0.2400E+02
-114.022  0.1572E-83  0.2400E+02
-113.972  0.1572E-83  0.2400E+02
-113.922  0.1572E-83  0.2400E+02
-113.872  0.1572E-83  0.2400E+02
-113.822  0.1572E-83  0.2400E+02
-113.772  0.1572E-83  0.2400E+02
-113.722  0.1572E-83  0.2400E+02
-113.672  0.1572E-83  0.2400E+02
-113.622  0.1572E-83  0.2400E+02
-113.572  0.1572E-83  0.2400E+02
-113.522  0.1572E-83  0.2400E+02
-113.472  0.1572E-83  0.2400E+02
-113.422  0.1572E-83  0.2400E+02
-113.372  0.1572E-83  0.2400E+02
-113.322  0.1572E-83  0.2400E+02
-113.272  0.1572E-83  0.2400E+02
-113.222  0.1572E-83  0.2400E+02
-113.172  0.1572E-83  0.2400E+02
-113.122  0.1572E-83  0.2400E+02
-113.072  0.1572E-83  0.2400E+02
-113.022  0.1572E-83  0.2400E+02
-112.972  0.1572E-83  0.2400E+02
-112.922  0.1572E-83  0.2400E+02
-112.872  0.1572E-83  0.2400E+02
-112.822  0.1572E-83  0.2400E+02
-112.772  0.1572E-83  0.2400E+02
-112.722  0.1572E-83  0.2400E+02
-112.672  0.1572E-83  0.2400E+02
-112.622  0.1572E-83  0.2400E+02
-112.572  0.1572E-83  0.2400E+02
-112.522  0.1572E-83  0.2400E+02
-112.472  0.1572E-83  0.2400E+02
-112.422  0.1572E-83  0.2400E+02
-112.372  0.1572E-83  0.2400E+02
-112.322  0.1572E-83  0.2400E+02
-112.272  0.1572E-83  0.2400E+02
-112.222  0.1572E-83  0.2400E+02
-112.172  0.1572E-83  0.2400E+02
-112.122  0.1572E-83  0.2400E+02
-112.072  0.1572E-83  0.2400E+02
-112.022  0.1572E-83  0.2400E+02
-111.972  0.1572E-83  0.2400E+02
-111.922  0.1572E-83  0.2400E+02
-111.872  0.1572E-83  0.2400E+02
-111.822  0.1572E-83  0.2400E+02
-111.772  0.1572E-83  0.2400E+02
-111.722  0.1572E-83  0.2400E+02
-111.672  0.1572E-83  0.2400E+02
-111.622  0.1572E-83  0.2400E+02
-111.572  0.1572E-83  0.2400E+02
-111.522  0.1572E-83  0.2400E+02
-111.472  0.1572E-83  0.2400E+02
-111.422  0.1572E-83  0.2400E+02
-111.372  0.1572E-83  0.2400E+02
-111.322  0.1572E-83  0.2400E+02
-111.272  0.1572E-83  0.2400E+02
-111.222  0.1572E-83  0.2400E+02
-111.172  0.1572E-83  0.2400E+02
-111.122  0.1572E-83  0.2400E+02
-111.072  0.1572E-83  0.2400E+02
-111.022  0.1572E-83  0.2400E+02
-110.972  0.1572E-83  0.2400E+02
-110.922  0.1572E-83  0.2400E+02
-110.872  0.1572E-83  0.2400E+02
-110.822  0.1572E-83  0.2400E+02
-110.772  0.1572E-83  0.2400E+02
-110.722  0.1572E-83  0.2400E+02
-110.672  0.1572E-83  0.2400E+02
-110.622  0.1572E-83  0.2400E+02
-110.572  0.1572E-83  0.2400E+02
-110.522  0.1572E-83  0.2400E+02
-110.472  0.1572E-83  0.2400E+02
-110.422  0.1572E-83  0.2400E+02
-110.372  0.1572E-83  0.2400E+02
-110.322  0.1572E-83  0.2400E+02
-110.272  0.1572E-83  0.2400E+02
-110.222  0.1572E-83  0.2400E+02
-110.172  0.1572E-83  0.2400E+02
-110.122  0.1572E-83  0.2400E+02
-110.072  0.1572E-83  0.2400E+02
-110.022  0.1572E-83  0.2400E+02
-109.972  0.1572E-83  0.2400E+02
-109.922  0.1572E-83  0.2400E+02
-109.872  0.1572E-83  0.2400E+02
-109.822  0.1572E-83  0.2400E+02
-109.772  0.1572E-83  0.2400E+02
-109.722  0.1572E-83  0.2400E+02
-109.672  0.1572E-83  0.2400E+02
-109.622  0.1572E-83  0.2400E+02
-109.572  0.1572E-83  0.2400E+02
-109.522  0.1572E-83  0.2400E+02
-109.472  0.1572E-83  0.2400E+02
-109.422  0.1572E-83  0.2400E+02
-109.372  0.1572E-83  0.2400E+02
-109.322  0.1572E-83  0.2400E+02
-109.272  0.1572E-83  0.2400E+02
-109.222  0.1572E-83  0.2400E+02
-109.172  0.1572E-83  0.2400E+02
-109.122  0.1572E-83  0.2400E+02
-109.072  0.1572E-83  0.2400E+02
-109.022  0.1572E-83  0.2400E+02
-108.972  0.1572E-83  0.2400E+02
-108.922  0.1572E-83  0.2400E+02
-108.872  0.1572E-83  0.2400E+02
-108.822  0.1572E-83  0.2400E+02
-108.772  0.1572E-83  0.2400E+02
-108.722  0.1572E-83  0.2400E+02
-108.672  0.1572E-83  0.2400E+02
-108.622  0.1572E-83  0.2400E+02
-108.572  0.1572E-83  0.2400E+02
-108.522  0.1572E-83  0.2400E+02
-108.472  0.1572E-83  0.2400E+02
-108.422  0.1572E-83  0.2400E+02
-108.372  0.1572E-83  0.2400E+02
-108.322  0.1572E-83  0.2400E+02
-108.272  0.1572E-83  0.2400E+02
-108.222  0.1572E-83  0.2400E+02
-108.172  0.1572E-83  0.2400E+02
-108.122  0.1572E-83  0.2400E+02
-108.072  0.1572E-83  0.2400E+02
-108.022  0.1572E-83  0.2400E+02
-107.972  0.1572E-83  0.2400E+02
-107.922  0.1572E-83  0.2400E+02
-107.872  0.1572E-83  0.2400E+02
-107.822  0.1572E-83  0.2400E+02
-107.772  0.1572E-83  0.2400E+02
-107.722  0.1572E-83  0.2400E+02
-107.672  0.1572E-83  0.2400E+02
-107.622  0.1572E-83  0.2400E+02
-107.572  0.1572E-83  0.2400E+02
-107.522  0.1572E-83  0.2400E+02
-107.472  0.1572E-83  0.2400E+02
-107.422  0.1572E-83  0.2400E+02
-107.372  0.1572E-83  0.2400E+02
-107.322  0.1572E-83  0.2400E+02
-107.272  0.1572E-83  0.2400E+02
-107.222  0.1572E-83  0.2400E+02
-107.172  0.1572E-83  0.2400E+02
-107.122  0.1572E-83  0.2400E+02
-107.072  0.1572E-83  0.2400E+02
-107.022  0.1572E-83  0.2400E+02
-106.972  0.1572E-83  0.2400E+02
-106.922  0.1572E-83  0.2400E+02
-106.872  0.1572E-83  0.2400E+02
-106.822  0.1572E-83  0.2400E+02
-106.772  0.1572E-83  0.2400E+02
-106.722  0.1572E-83  0.2400E+02
-106.672  0.1572E-83  0.2400E+02
-106.622  0.1572E-83  0.2400E+02
-106.572  0.1572E-83  0.2400E+02
-106.522  0.1572E-83  0.2400E+02
-106.472  0.1572E-83  0.2400E+02
-106.422  0.1572E-83  0.2400E+02
-106.372  0.1572E-83  0.2400E+02
-106.322  0.1572E-83  0.2400E+02
-106.272  0.1572E-83  0.2400E+02
-106.222  0.1572E-83  0.2400E+02
-106.172  0.1572E-83  0.2400E+02
-106.122  0.1572E-83  0.2400E+02
-106.072  0.1572E-83  0.2400E+02
-106.022  0.1572E-83  0.2400E+02
-105.972  0.1572E-83  0.2400E+02
-105.922  0.1572E-83  0.2400E+02
-105.872  0.1572E-83  0.2400E+02
-105.822  0.1572E-83  0.2400E+02
-105.772  0.1572E-83  0.2400E+02
-105.722  0.1572E-83  0.2400E+02
-105.672  0.1572E-83  0.2400E+02
-105.622  0.1572E-83  0.2400E+02
-105.572  0.1572E-83  0.2400E+02
-105.522  0.1572E-83  0.2400E+02
-105.472  0.1572E-83  0.2400E+02
-105.422  0.1572E-83  0.2400E+02
-105.372  0.1572E-83  0.2400E+02
-105.322  0.1572E-83  0.2400E+02
-105.272  0.1572E-83  0.2400E+02
-105.222  0.1572E-83  0.2400E+02
-105.172  0.1572E-83  0.2400E+02
-105.122  0.1572E-83  0.2400E+02
-105.072  0.1572E-83  0.2400E+02
-105.022  0.1572E-83  0.2400E+02
-104.972  0.1572E-83  0.2400E+02
-104.922  0.1572E-83  0.2400E+02
-104.872  0.1572E-83  0.2400E+02
-104.822  0.1572E-83  0.2400E+02
-104.772  0.1572E-83  0.2400E+02
-104.722  0.1572E-83  0.2400E+02
-104.672  0.1572E-83  0.2400E+02
-104.622  0.1572E-83  0.2400E+02
-104.572  0.1572E-83  0.2400E+02
-104.522  0.1572E-83  0.2400E+02
-104.472  0.1572E-83  0.2400E+02
-104.422  0.1572E-83  0.2400E+02
-104.372  0.1572E-83  0.2400E+02
-104.322  0.1572E-83  0.2400E+02
-104.272  0.1572E-83  0.2400E+02
-104.222  0.1572E-83  0.2400E+02
-104.172  0.1572E-83  0.2400E+02
-104.122  0.1572E-83  0.2400E+02
-104.072  0.1572E-83  0.2400E+02
-104.022  0.1572E-83  0.2400E+02
-103.972  0.1572E-83  0.2400E+02
-103.922  0.1572E-83  0.2400E+02
-103.872  0.1572E-83  0.2400E+02
-103.822  0.1572E-83  0.2400E+02
-103.772  0.1572E-83  0.2400E+02
-103.722  0.1572E-83  0.2400E+02
-103.672  0.1572E-83  0.2400E+02
-103.622  0.1572E-83  0.2400E+02
-103.572  0.1572E-83  0.2400E+02
-103.522  0.1572E-83  0.2400E+02
-103.472  0.1572E-83  0.2400E+02
-103.422  0.1572E-83  0.2400E+02
-103.372  0.1572E-83  0.2400E+02
-103.322  0.1572E-83  0.2400E+02
-103.272  0.1572E-83  0.2400E+02
-103.222  0.1572E-83  0.2400E+02
-103.172  0.1572E-83  0.2400E+02
-103.122  0.1572E-83  0.2400E+02
-103.072  0.1572E-83  0.2400E+02
-103.022  0.1572E-83  0.2400E+02
-102.972  0.1572E-83  0.2400E+02
-102.922  0.1572E-83  0.2400E+02
-102.872  0.1572E-83  0.2400E+02
-102.822  0.1572E-83  0.2400E+02
-102.772  0.1572E-83  0.2400E+02
-102.722  0.1572E-83  0.2400E+02
-102.672  0.1572E-83  0.2400E+02
-102.622  0.1572E-83  0.2400E+02
-102.572  0.1572E-83  0.2400E+02
-102.522  0.1572E-83  0.2400E+02
-102.472  0.1572E-83  0.2400E+02
-102.422  0.1572E-83  0.2400E+02
-102.372  0.1572E-83  0.2400E+02
-102.322  0.1572E-83  0.2400E+02
-102.272  0.1572E-83  0.2400E+02
-102.222  0.1572E-83  0.2400E+02
-102.172  0.1572E-83  0.2400E+02
-102.122  0.1572E-83  0.2400E+02
-102.072  0.1572E-83  0.2400E+02
-102.022  0.1572E-83  0.2400E+02
-101.972  0.1572E-83  0.2400E+02
-101.922  0.1572E-83  0.2400E+02
-101.872  0.1572E-83  0.2400E+02
-101.822  0.1572E-83  0.2400E+02
-101.772  0.1572E-83  0.2400E+02
-101.722  0.1572E-83  0.2400E+02
-101.672  0.1572E-83  0.2400E+02
-101.622  0.1572E-83  0.2400E+02
-101.572  0.1572E-83  0.2400E+02
-101.522  0.1572E-83  0.2400E+02
-101.472  0.1572E-83  0.2400E+02
-101.422  0.1572E-83  0.2400E+02
-101.372  0.1572E-83  0.2400E+02
-101.322  0.1572E-83  0.2400E+02
-101.272  0.1572E-83  0.2400E+02
-101.222  0.1572E-83  0.2400E+02
-101.172  0.1572E-83  0.2400E+02
-101.122  0.1572E-83  0.2400E+02
-101.072  0.1572E-83  0.2400E+02
-101.022  0.1572E-83  0.2400E+02
-100.972  0.1572E-83  0.2400E+02
-100.922  0.1572E-83  0.2400E+02
-100.872  0.1572E-83  0.2400E+02
-100.822  0.1572E-83  0.2400E+02
-100.772  0.1572E-83  0.2400E+02
-100.722  0.1572E-83  0.2400E+02
-100.672  0.1572E-83  0.2400E+02
-100.622  0.1572E-83  0.2400E+02
-100.572  0.1572E-83  0.2400E+02
-100.522  0.1572E-83  0.2400E+02
-100.472  0.1572E-83  0.2400E+02
-100.422  0.1572E-83  0.2400E+02
-100.372  0.1572E-83  0.2400E+02
-100.322  0.1572E-83  0.2400E+02
-100.272  0.1572E-83  0.2400E+02
-100.222  0.1572E-83  0.2400E+02
-100.172  0.1572E-83  0.2400E+02
-100.122  0.1572E-83  0.2400E+02
-100.072  0.1572E-83  0.2400E+02
-100.022  0.1572E-83  0.2400E+02
 -99.972  0.1572E-83  0.2400E+02
 -99.922  0.1572E-83  0.2400E+02
 -99.872  0.1572E-83  0.2400E+02
 -99.822  0.1572E-83  0.2400E+02
 -99.772  0.1572E-83  0.2400E+02
 -99.722  0.1572E-83  0.2400E+02
 -99.672  0.1572E-83  0.2400E+02
 -99.622  0.1572E-83  0.2400E+02
 -99.572  0.1572E-83  0.2400E+02
 -99.522  0.1572E-83  0.2400E+02
 -99.472  0.1572E-83  0.2400E+02
 -99.422  0.1572E-83  0.2400E+02
 -99.372  0.1572E-83  0.2400E+02
 -99.322  0.1572E-83  0.2400E+02
 -99.272  0.1572E-83  0.2400E+02
 -99.222  0.1572E-83  0.2400E+02
 -99.172  0.1572E-83  0.2400E+02
 -99.122  0.1572E-83  0.2400E+02
 -99.072  0.1572E-83  0.2400E+02
 -99.022  0.1572E-83  0.2400E+02
 -98.972  0.1572E-83  0.2400E+02
 -98.922  0.1572E-83  0.2400E+02
 -98.872  0.1572E-83  0.2400E+02
 -98.822  0.1572E-83  0.2400E+02
 -98.772  0.1572E-83  0.2400E+02
 -98.722  0.1572E-83  0.2400E+02
 -98.672  0.1572E-83  0.2400E+02
 -98.622  0.1572E-83  0.2400E+02
 -98.572  0.1572E-83  0.2400E+02
 -98.522  0.1572E-83  0.2400E+02
 -98.472  0.1572E-83  0.2400E+02
 -98.422  0.1572E-83  0.2400E+02
 -98.372  0.1572E-83  0.2400E+02
 -98.322  0.1572E-83  0.2400E+02
 -98.272  0.1572E-83  0.2400E+02
 -98.222  0.1572E-83  0.2400E+02
 -98.172  0.1572E-83  0.2400E+02
 -98.122  0.1572E-83  0.2400E+02
 -98.072  0.1572E-83  0.2400E+02
 -98.022  0.1572E-83  0.2400E+02
 -97.972  0.1572E-83  0.2400E+02
 -97.922  0.1572E-83  0.2400E+02
 -97.872  0.1572E-83  0.2400E+02
 -97.822  0.1572E-83  0.2400E+02
 -97.772  0.1572E-83  0.2400E+02
 -97.722  0.1572E-83  0.2400E+02
 -97.672  0.1572E-83  0.2400E+02
 -97.622  0.1572E-83  0.2400E+02
 -97.572  0.1572E-83  0.2400E+02
 -97.522  0.1572E-83  0.2400E+02
 -97.472  0.1572E-83  0.2400E+02
 -97.422  0.1572E-83  0.2400E+02
 -97.372  0.1572E-83  0.2400E+02
 -97.322  0.1572E-83  0.2400E+02
 -97.272  0.1572E-83  0.2400E+02
 -97.222  0.1572E-83  0.2400E+02
 -97.172  0.1572E-83  0.2400E+02
 -97.122  0.1572E-83  0.2400E+02
 -97.072  0.1572E-83  0.2400E+02
 -97.022  0.1572E-83  0.2400E+02
 -96.972  0.1572E-83  0.2400E+02
 -96.922  0.1572E-83  0.2400E+02
 -96.872  0.1572E-83  0.2400E+02
 -96.822  0.1572E-83  0.2400E+02
 -96.772  0.1572E-83  0.2400E+02
 -96.722  0.1572E-83  0.2400E+02
 -96.672  0.1572E-83  0.2400E+02
 -96.622  0.1572E-83  0.2400E+02
 -96.572  0.1572E-83  0.2400E+02
 -96.522  0.1572E-83  0.2400E+02
 -96.472  0.1572E-83  0.2400E+02
 -96.422  0.1572E-83  0.2400E+02
 -96.372  0.1572E-83  0.2400E+02
 -96.322  0.1572E-83  0.2400E+02
 -96.272  0.1572E-83  0.2400E+02
 -96.222  0.1572E-83  0.2400E+02
 -96.172  0.1572E-83  0.2400E+02
 -96.122  0.1572E-83  0.2400E+02
 -96.072  0.1572E-83  0.2400E+02
 -96.022  0.1572E-83  0.2400E+02
 -95.972  0.1572E-83  0.2400E+02
 -95.922  0.1572E-83  0.2400E+02
 -95.872  0.1572E-83  0.2400E+02
 -95.822  0.1572E-83  0.2400E+02
 -95.772  0.1572E-83  0.2400E+02
 -95.722  0.1572E-83  0.2400E+02
 -95.672  0.1572E-83  0.2400E+02
 -95.622  0.1572E-83  0.2400E+02
 -95.572  0.1572E-83  0.2400E+02
 -95.522  0.1572E-83  0.2400E+02
 -95.472  0.1572E-83  0.2400E+02
 -95.422  0.1572E-83  0.2400E+02
 -95.372  0.1572E-83  0.2400E+02
 -95.322  0.1572E-83  0.2400E+02
 -95.272  0.1572E-83  0.2400E+02
 -95.222  0.1572E-83  0.2400E+02
 -95.172  0.1572E-83  0.2400E+02
 -95.122  0.1572E-83  0.2400E+02
 -95.072  0.1572E-83  0.2400E+02
 -95.022  0.1572E-83  0.2400E+02
 -94.972  0.1572E-83  0.2400E+02
 -94.922  0.1572E-83  0.2400E+02
 -94.872  0.1572E-83  0.2400E+02
 -94.822  0.1572E-83  0.2400E+02
 -94.772  0.1572E-83  0.2400E+02
 -94.722  0.1572E-83  0.2400E+02
 -94.672  0.1572E-83  0.2400E+02
 -94.622  0.1572E-83  0.2400E+02
 -94.572  0.1572E-83  0.2400E+02
 -94.522  0.1572E-83  0.2400E+02
 -94.472  0.1572E-83  0.2400E+02
 -94.422  0.1572E-83  0.2400E+02
 -94.372  0.1572E-83  0.2400E+02
 -94.322  0.1572E-83  0.2400E+02
 -94.272  0.1572E-83  0.2400E+02
 -94.222  0.1572E-83  0.2400E+02
 -94.172  0.1572E-83  0.2400E+02
 -94.122  0.1572E-83  0.2400E+02
 -94.072  0.1572E-83  0.2400E+02
 -94.022  0.1572E-83  0.2400E+02
 -93.972  0.1572E-83  0.2400E+02
 -93.922  0.1572E-83  0.2400E+02
 -93.872  0.1572E-83  0.2400E+02
 -93.822  0.1572E-83  0.2400E+02
 -93.772  0.1572E-83  0.2400E+02
 -93.722  0.1572E-83  0.2400E+02
 -93.672  0.1572E-83  0.2400E+02
 -93.622  0.1572E-83  0.2400E+02
 -93.572  0.1572E-83  0.2400E+02
 -93.522  0.1572E-83  0.2400E+02
 -93.472  0.1572E-83  0.2400E+02
 -93.422  0.1572E-83  0.2400E+02
 -93.372  0.1572E-83  0.2400E+02
 -93.322  0.1572E-83  0.2400E+02
 -93.272  0.1572E-83  0.2400E+02
 -93.222  0.1572E-83  0.2400E+02
 -93.172  0.1572E-83  0.2400E+02
 -93.122  0.1572E-83  0.2400E+02
 -93.072  0.1572E-83  0.2400E+02
 -93.022  0.1572E-83  0.2400E+02
 -92.972  0.1572E-83  0.2400E+02
 -92.922  0.1572E-83  0.2400E+02
 -92.872  0.1572E-83  0.2400E+02
 -92.822  0.1572E-83  0.2400E+02
 -92.772  0.1572E-83  0.2400E+02
 -92.722  0.1572E-83  0.2400E+02
 -92.672  0.1572E-83  0.2400E+02
 -92.622  0.1572E-83  0.2400E+02
 -92.572  0.1572E-83  0.2400E+02
 -92.522  0.1572E-83  0.2400E+02
 -92.472  0.1572E-83  0.2400E+02
 -92.422  0.1572E-83  0.2400E+02
 -92.372  0.1572E-83  0.2400E+02
 -92.322  0.1572E-83  0.2400E+02
 -92.272  0.1572E-83  0.2400E+02
 -92.222  0.1572E-83  0.2400E+02
 -92.172  0.1572E-83  0.2400E+02
 -92.122  0.1572E-83  0.2400E+02
 -92.072  0.1572E-83  0.2400E+02
 -92.022  0.1572E-83  0.2400E+02
 -91.972  0.1572E-83  0.2400E+02
 -91.922  0.1572E-83  0.2400E+02
 -91.872  0.1572E-83  0.2400E+02
 -91.822  0.1572E-83  0.2400E+02
 -91.772  0.1572E-83  0.2400E+02
 -91.722  0.1572E-83  0.2400E+02
 -91.672  0.1572E-83  0.2400E+02
 -91.622  0.1572E-83  0.2400E+02
 -91.572  0.1572E-83  0.2400E+02
 -91.522  0.1572E-83  0.2400E+02
 -91.472  0.1572E-83  0.2400E+02
 -91.422  0.1572E-83  0.2400E+02
 -91.372  0.1572E-83  0.2400E+02
 -91.322  0.1572E-83  0.2400E+02
 -91.272  0.1572E-83  0.2400E+02
 -91.222  0.1572E-83  0.2400E+02
 -91.172  0.1572E-83  0.2400E+02
 -91.122  0.1572E-83  0.2400E+02
 -91.072  0.1572E-83  0.2400E+02
 -91.022  0.1572E-83  0.2400E+02
 -90.972  0.1572E-83  0.2400E+02
 -90.922  0.1572E-83  0.2400E+02
 -90.872  0.1572E-83  0.2400E+02
 -90.822  0.1572E-83  0.2400E+02
 -90.772  0.1572E-83  0.2400E+02
 -90.722  0.1572E-83  0.2400E+02
 -90.672  0.1572E-83  0.2400E+02
 -90.622  0.1572E-83  0.2400E+02
 -90.572  0.1572E-83  0.2400E+02
 -90.522  0.1572E-83  0.2400E+02
 -90.472  0.1572E-83  0.2400E+02
 -90.422  0.1572E-83  0.2400E+02
 -90.372  0.1572E-83  0.2400E+02
 -90.322  0.1572E-83  0.2400E+02
 -90.272  0.1572E-83  0.2400E+02
 -90.222  0.1572E-83  0.2400E+02
 -90.172  0.1572E-83  0.2400E+02
 -90.122  0.1572E-83  0.2400E+02
 -90.072  0.1572E-83  0.2400E+02
 -90.022  0.1572E-83  0.2400E+02
 -89.972  0.1572E-83  0.2400E+02
 -89.922  0.1572E-83  0.2400E+02
 -89.872  0.1572E-83  0.2400E+02
 -89.822  0.1572E-83  0.2400E+02
 -89.772  0.1572E-83  0.2400E+02
 -89.722  0.1572E-83  0.2400E+02
 -89.672  0.1572E-83  0.2400E+02
 -89.622  0.1572E-83  0.2400E+02
 -89.572  0.1572E-83  0.2400E+02
 -89.522  0.1572E-83  0.2400E+02
 -89.472  0.1572E-83  0.2400E+02
 -89.422  0.1572E-83  0.2400E+02
 -89.372  0.1572E-83  0.2400E+02
 -89.322  0.1572E-83  0.2400E+02
 -89.272  0.1572E-83  0.2400E+02
 -89.222  0.1572E-83  0.2400E+02
 -89.172  0.1572E-83  0.2400E+02
 -89.122  0.1572E-83  0.2400E+02
 -89.072  0.1572E-83  0.2400E+02
 -89.022  0.1572E-83  0.2400E+02
 -88.972  0.1572E-83  0.2400E+02
 -88.922  0.1572E-83  0.2400E+02
 -88.872  0.1572E-83  0.2400E+02
 -88.822  0.1572E-83  0.2400E+02
 -88.772  0.1572E-83  0.2400E+02
 -88.722  0.1572E-83  0.2400E+02
 -88.672  0.1572E-83  0.2400E+02
 -88.622  0.1572E-83  0.2400E+02
 -88.572  0.1572E-83  0.2400E+02
 -88.522  0.1572E-83  0.2400E+02
 -88.472  0.1572E-83  0.2400E+02
 -88.422  0.1572E-83  0.2400E+02
 -88.372  0.1572E-83  0.2400E+02
 -88.322  0.1572E-83  0.2400E+02
 -88.272  0.1572E-83  0.2400E+02
 -88.222  0.1572E-83  0.2400E+02
 -88.172  0.1572E-83  0.2400E+02
 -88.122  0.1572E-83  0.2400E+02
 -88.072  0.1572E-83  0.2400E+02
 -88.022  0.1572E-83  0.2400E+02
 -87.972  0.1572E-83  0.2400E+02
 -87.922  0.1572E-83  0.2400E+02
 -87.872  0.1572E-83  0.2400E+02
 -87.822  0.1572E-83  0.2400E+02
 -87.772  0.1572E-83  0.2400E+02
 -87.722  0.1572E-83  0.2400E+02
 -87.672  0.1572E-83  0.2400E+02
 -87.622  0.1572E-83  0.2400E+02
 -87.572  0.1572E-83  0.2400E+02
 -87.522  0.1572E-83  0.2400E+02
 -87.472  0.1572E-83  0.2400E+02
 -87.422  0.1572E-83  0.2400E+02
 -87.372  0.1572E-83  0.2400E+02
 -87.322  0.1572E-83  0.2400E+02
 -87.272  0.1572E-83  0.2400E+02
 -87.222  0.1572E-83  0.2400E+02
 -87.172  0.1572E-83  0.2400E+02
 -87.122  0.1572E-83  0.2400E+02
 -87.072  0.1572E-83  0.2400E+02
 -87.022  0.1572E-83  0.2400E+02
 -86.972  0.1572E-83  0.2400E+02
 -86.922  0.1572E-83  0.2400E+02
 -86.872  0.1572E-83  0.2400E+02
 -86.822  0.1572E-83  0.2400E+02
 -86.772  0.1572E-83  0.2400E+02
 -86.722  0.1572E-83  0.2400E+02
 -86.672  0.1572E-83  0.2400E+02
 -86.622  0.1572E-83  0.2400E+02
 -86.572  0.1572E-83  0.2400E+02
 -86.522  0.1572E-83  0.2400E+02
 -86.472  0.1572E-83  0.2400E+02
 -86.422  0.1572E-83  0.2400E+02
 -86.372  0.1572E-83  0.2400E+02
 -86.322  0.1572E-83  0.2400E+02
 -86.272  0.1572E-83  0.2400E+02
 -86.222  0.1572E-83  0.2400E+02
 -86.172  0.1572E-83  0.2400E+02
 -86.122  0.1572E-83  0.2400E+02
 -86.072  0.1572E-83  0.2400E+02
 -86.022  0.1572E-83  0.2400E+02
 -85.972  0.1572E-83  0.2400E+02
 -85.922  0.1572E-83  0.2400E+02
 -85.872  0.1572E-83  0.2400E+02
 -85.822  0.1572E-83  0.2400E+02
 -85.772  0.1572E-83  0.2400E+02
 -85.722  0.1572E-83  0.2400E+02
 -85.672  0.1572E-83  0.2400E+02
 -85.622  0.1572E-83  0.2400E+02
 -85.572  0.1572E-83  0.2400E+02
 -85.522  0.1572E-83  0.2400E+02
 -85.472  0.1572E-83  0.2400E+02
 -85.422  0.1572E-83  0.2400E+02
 -85.372  0.1572E-83  0.2400E+02
 -85.322  0.1572E-83  0.2400E+02
 -85.272  0.1572E-83  0.2400E+02
 -85.222  0.1572E-83  0.2400E+02
 -85.172  0.1572E-83  0.2400E+02
 -85.122  0.1572E-83  0.2400E+02
 -85.072  0.1572E-83  0.2400E+02
 -85.022  0.1572E-83  0.2400E+02
 -84.972  0.1572E-83  0.2400E+02
 -84.922  0.1572E-83  0.2400E+02
 -84.872  0.1572E-83  0.2400E+02
 -84.822  0.1572E-83  0.2400E+02
 -84.772  0.1572E-83  0.2400E+02
 -84.722  0.1572E-83  0.2400E+02
 -84.672  0.1572E-83  0.2400E+02
 -84.622  0.1572E-83  0.2400E+02
 -84.572  0.1572E-83  0.2400E+02
 -84.522  0.1572E-83  0.2400E+02
 -84.472  0.1572E-83  0.2400E+02
 -84.422  0.1572E-83  0.2400E+02
 -84.372  0.1572E-83  0.2400E+02
 -84.322  0.1572E-83  0.2400E+02
 -84.272  0.1572E-83  0.2400E+02
 -84.222  0.1572E-83  0.2400E+02
 -84.172  0.1572E-83  0.2400E+02
 -84.122  0.1572E-83  0.2400E+02
 -84.072  0.1572E-83  0.2400E+02
 -84.022  0.1572E-83  0.2400E+02
 -83.972  0.1572E-83  0.2400E+02
 -83.922  0.1572E-83  0.2400E+02
 -83.872  0.1572E-83  0.2400E+02
 -83.822  0.1572E-83  0.2400E+02
 -83.772  0.1572E-83  0.2400E+02
 -83.722  0.1572E-83  0.2400E+02
 -83.672  0.1572E-83  0.2400E+02
 -83.622  0.1572E-83  0.2400E+02
 -83.572  0.1572E-83  0.2400E+02
 -83.522  0.1572E-83  0.2400E+02
 -83.472  0.1572E-83  0.2400E+02
 -83.422  0.1572E-83  0.2400E+02
 -83.372  0.1572E-83  0.2400E+02
 -83.322  0.1572E-83  0.2400E+02
 -83.272  0.1572E-83  0.2400E+02
 -83.222  0.1572E-83  0.2400E+02
 -83.172  0.1572E-83  0.2400E+02
 -83.122  0.1572E-83  0.2400E+02
 -83.072  0.1572E-83  0.2400E+02
 -83.022  0.1572E-83  0.2400E+02
 -82.972  0.1572E-83  0.2400E+02
 -82.922  0.1572E-83  0.2400E+02
 -82.872  0.1572E-83  0.2400E+02
 -82.822  0.1572E-83  0.2400E+02
 -82.772  0.1572E-83  0.2400E+02
 -82.722  0.1572E-83  0.2400E+02
 -82.672  0.1572E-83  0.2400E+02
 -82.622  0.1572E-83  0.2400E+02
 -82.572  0.1572E-83  0.2400E+02
 -82.522  0.1572E-83  0.2400E+02
 -82.472  0.1572E-83  0.2400E+02
 -82.422  0.1572E-83  0.2400E+02
 -82.372  0.1572E-83  0.2400E+02
 -82.322  0.1572E-83  0.2400E+02
 -82.272  0.1572E-83  0.2400E+02
 -82.222  0.1572E-83  0.2400E+02
 -82.172  0.1572E-83  0.2400E+02
 -82.122  0.1572E-83  0.2400E+02
 -82.072  0.1572E-83  0.2400E+02
 -82.022  0.1572E-83  0.2400E+02
 -81.972  0.1572E-83  0.2400E+02
 -81.922  0.1572E-83  0.2400E+02
 -81.872  0.1572E-83  0.2400E+02
 -81.822  0.1572E-83  0.2400E+02
 -81.772  0.1572E-83  0.2400E+02
 -81.722  0.1572E-83  0.2400E+02
 -81.672  0.1572E-83  0.2400E+02
 -81.622  0.1572E-83  0.2400E+02
 -81.572  0.1572E-83  0.2400E+02
 -81.522  0.1572E-83  0.2400E+02
 -81.472  0.1572E-83  0.2400E+02
 -81.422  0.1572E-83  0.2400E+02
 -81.372  0.1572E-83  0.2400E+02
 -81.322  0.1572E-83  0.2400E+02
 -81.272  0.1572E-83  0.2400E+02
 -81.222  0.1572E-83  0.2400E+02
 -81.172  0.1572E-83  0.2400E+02
 -81.122  0.1572E-83  0.2400E+02
 -81.072  0.1572E-83  0.2400E+02
 -81.022  0.1572E-83  0.2400E+02
 -80.972  0.1572E-83  0.2400E+02
 -80.922  0.1572E-83  0.2400E+02
 -80.872  0.1572E-83  0.2400E+02
 -80.822  0.1572E-83  0.2400E+02
 -80.772  0.1572E-83  0.2400E+02
 -80.722  0.1572E-83  0.2400E+02
 -80.672  0.1572E-83  0.2400E+02
 -80.622  0.1572E-83  0.2400E+02
 -80.572  0.1572E-83  0.2400E+02
 -80.522  0.1572E-83  0.2400E+02
 -80.472  0.1572E-83  0.2400E+02
 -80.422  0.1572E-83  0.2400E+02
 -80.372  0.1572E-83  0.2400E+02
 -80.322  0.1572E-83  0.2400E+02
 -80.272  0.1572E-83  0.2400E+02
 -80.222  0.1572E-83  0.2400E+02
 -80.172  0.1572E-83  0.2400E+02
 -80.122  0.1572E-83  0.2400E+02
 -80.072  0.1572E-83  0.2400E+02
 -80.022  0.1572E-83  0.2400E+02
 -79.972  0.1572E-83  0.2400E+02
 -79.922  0.1572E-83  0.2400E+02
 -79.872  0.1572E-83  0.2400E+02
 -79.822  0.1572E-83  0.2400E+02
 -79.772  0.1572E-83  0.2400E+02
 -79.722  0.1572E-83  0.2400E+02
 -79.672  0.1572E-83  0.2400E+02
 -79.622  0.1572E-83  0.2400E+02
 -79.572  0.1572E-83  0.2400E+02
 -79.522  0.1572E-83  0.2400E+02
 -79.472  0.1572E-83  0.2400E+02
 -79.422  0.1572E-83  0.2400E+02
 -79.372  0.1572E-83  0.2400E+02
 -79.322  0.1572E-83  0.2400E+02
 -79.272  0.1572E-83  0.2400E+02
 -79.222  0.1572E-83  0.2400E+02
 -79.172  0.1572E-83  0.2400E+02
 -79.122  0.1572E-83  0.2400E+02
 -79.072  0.1572E-83  0.2400E+02
 -79.022  0.1572E-83  0.2400E+02
 -78.972  0.1572E-83  0.2400E+02
 -78.922  0.1572E-83  0.2400E+02
 -78.872  0.1572E-83  0.2400E+02
 -78.822  0.1572E-83  0.2400E+02
 -78.772  0.1572E-83  0.2400E+02
 -78.722  0.1572E-83  0.2400E+02
 -78.672  0.1572E-83  0.2400E+02
 -78.622  0.1572E-83  0.2400E+02
 -78.572  0.1572E-83  0.2400E+02
 -78.522  0.1572E-83  0.2400E+02
 -78.472  0.1572E-83  0.2400E+02
 -78.422  0.1572E-83  0.2400E+02
 -78.372  0.1572E-83  0.2400E+02
 -78.322  0.1572E-83  0.2400E+02
 -78.272  0.1572E-83  0.2400E+02
 -78.222  0.1572E-83  0.2400E+02
 -78.172  0.1572E-83  0.2400E+02
 -78.122  0.1572E-83  0.2400E+02
 -78.072  0.1572E-83  0.2400E+02
 -78.022  0.1572E-83  0.2400E+02
 -77.972  0.1572E-83  0.2400E+02
 -77.922  0.1572E-83  0.2400E+02
 -77.872  0.1572E-83  0.2400E+02
 -77.822  0.1572E-83  0.2400E+02
 -77.772  0.1572E-83  0.2400E+02
 -77.722  0.1572E-83  0.2400E+02
 -77.672  0.1572E-83  0.2400E+02
 -77.622  0.1572E-83  0.2400E+02
 -77.572  0.1572E-83  0.2400E+02
 -77.522  0.1572E-83  0.2400E+02
 -77.472  0.1572E-83  0.2400E+02
 -77.422  0.1572E-83  0.2400E+02
 -77.372  0.1572E-83  0.2400E+02
 -77.322  0.1572E-83  0.2400E+02
 -77.272  0.1572E-83  0.2400E+02
 -77.222  0.1572E-83  0.2400E+02
 -77.172  0.1572E-83  0.2400E+02
 -77.122  0.1572E-83  0.2400E+02
 -77.072  0.1572E-83  0.2400E+02
 -77.022  0.1572E-83  0.2400E+02
 -76.972  0.1572E-83  0.2400E+02
 -76.922  0.1572E-83  0.2400E+02
 -76.872  0.1572E-83  0.2400E+02
 -76.822  0.1572E-83  0.2400E+02
 -76.772  0.1572E-83  0.2400E+02
 -76.722  0.1572E-83  0.2400E+02
 -76.672  0.1572E-83  0.2400E+02
 -76.622  0.1572E-83  0.2400E+02
 -76.572  0.1572E-83  0.2400E+02
 -76.522  0.1572E-83  0.2400E+02
 -76.472  0.1572E-83  0.2400E+02
 -76.422  0.1572E-83  0.2400E+02
 -76.372  0.7740E-82  0.2400E+02
 -76.322  0.1736E-77  0.2400E+02
 -76.272  0.3033E-73  0.2400E+02
 -76.222  0.4049E-69  0.2400E+02
 -76.172  0.4129E-65  0.2400E+02
 -76.122  0.3217E-61  0.2400E+02
 -76.072  0.1915E-57  0.2400E+02
 -76.022  0.8714E-54  0.2400E+02
 -75.972  0.3030E-50  0.2400E+02
 -75.922  0.8051E-47  0.2400E+02
 -75.872  0.1635E-43  0.2400E+02
 -75.822  0.2539E-40  0.2400E+02
 -75.772  0.3015E-37  0.2400E+02
 -75.722  0.2737E-34  0.2400E+02
 -75.672  0.1900E-31  0.2400E+02
 -75.622  0.1009E-28  0.2400E+02
 -75.572  0.4103E-26  0.2400E+02
 -75.522  0.1276E-23  0.2400E+02
 -75.472  0.3040E-21  0.2400E+02
 -75.422  0.5545E-19  0.2400E+02
 -75.372  0.7748E-17  0.2400E+02
 -75.322  0.8300E-15  0.2400E+02
 -75.272  0.6818E-13  0.2400E+02
 -75.222  0.4297E-11  0.2400E+02
 -75.172  0.2079E-09  0.2400E+02
 -75.122  0.7728E-08  0.2400E+02
 -75.072  0.2208E-06  0.2400E+02
 -75.022  0.4851E-05  0.2400E+02
 -74.972  0.8203E-04  0.2400E+02
 -74.922  0.1068E-02  0.2400E+02
 -74.872  0.1072E-01  0.2400E+02
 -74.822  0.8289E-01  0.2400E+02
 -74.772  0.4944E+00  0.2403E+02
 -74.722  0.2275E+01  0.2414E+02
 -74.672  0.8077E+01  0.2455E+02
 -74.622  0.2213E+02  0.2565E+02
 -74.572  0.4685E+02  0.2800E+02
 -74.522  0.7683E+02  0.3184E+02
 -74.472  0.9873E+02  0.3677E+02
 -74.422  0.1035E+03  0.4195E+02
 -74.372  0.9986E+02  0.4694E+02
 -74.322  0.1085E+03  0.5237E+02
 -74.272  0.1392E+03  0.5933E+02
 -74.222  0.1757E+03  0.6812E+02
 -74.172  0.1886E+03  0.7754E+02
 -74.122  0.1627E+03  0.8568E+02
 -74.072  0.1111E+03  0.9123E+02
 -74.022  0.5957E+02  0.9421E+02
 -73.972  0.2500E+02  0.9546E+02
 -73.922  0.8182E+01  0.9587E+02
 -73.872  0.2080E+01  0.9598E+02
 -73.822  0.4096E+00  0.9600E+02
 -73.772  0.6231E-01  0.9600E+02
 -73.722  0.7305E-02  0.9600E+02
 -73.672  0.6589E-03  0.9600E+02
 -73.622  0.4565E-04  0.9600E+02
 -73.572  0.2426E-05  0.9600E+02
 -73.522  0.9884E-07  0.9600E+02
 -73.472  0.3084E-08  0.9600E+02
 -73.422  0.7363E-10  0.9600E+02
 -73.372  0.1345E-11  0.9600E+02
 -73.322  0.1879E-13  0.9600E+02
 -73.272  0.2007E-15  0.9600E+02
 -73.222  0.1638E-17  0.9600E+02
 -73.172  0.1021E-19  0.9600E+02
 -73.122  0.4867E-22  0.9600E+02
 -73.072  0.1772E-24  0.9600E+02
 -73.022  0.4926E-27  0.9600E+02
 -72.972  0.1046E-29  0.9600E+02
 -72.922  0.1696E-32  0.9600E+02
 -72.872  0.2100E-35  0.9600E+02
 -72.822  0.1986E-38  0.9600E+02
 -72.772  0.1434E-41  0.9600E+02
 -72.722  0.7909E-45  0.9600E+02
 -72.672  0.3329E-48  0.9600E+02
 -72.622  0.1070E-51  0.9600E+02
 -72.572  0.2626E-55  0.9600E+02
 -72.522  0.4921E-59  0.9600E+02
 -72.472  0.7041E-63  0.9600E+02
 -72.422  0.7690E-67  0.9600E+02
 -72.372  0.6412E-71  0.9600E+02
 -72.322  0.4082E-75  0.9600E+02
 -72.272  0.1984E-79  0.9600E+02
 -72.222  0.2216E-83  0.9600E+02
 -72.172  0.1572E-83  0.9600E+02
 -72.122  0.1572E-83  0.9600E+02
 -72.072  0.1572E-83  0.9600E+02
 -72.022  0.1572E-83  0.9600E+02
 -71.972  0.1572E-83  0.9600E+02
 -71.922  0.1572E-83  0.9600E+02
 -71.872  0.1572E-83  0.9600E+02
 -71.822  0.1572E-83  0.9600E+02
 -71.772  0.1572E-83  0.9600E+02
 -71.722  0.1572E-83  0.9600E+02
 -71.672  0.1572E-83  0.9600E+02
 -71.622  0.1572E-83  0.9600E+02
 -71.572  0.1572E-83  0.9600E+02
 -71.522  0.1572E-83  0.9600E+02
 -71.472  0.1572E-83  0.9600E+02
 -71.422  0.1572E-83  0.9600E+02
 -71.372  0.1572E-83  0.9600E+02
 -71.322  0.1572E-83  0.9600E+02
 -71.272  0.1572E-83  0.9600E+02
 -71.222  0.1572E-83  0.9600E+02
 -71.172  0.1572E-83  0.9600E+02
 -71.122  0.1572E-83  0.9600E+02
 -71.072  0.1572E-83  0.9600E+02
 -71.022  0.1572E-83  0.9600E+02
 -70.972  0.1572E-83  0.9600E+02
 -70.922  0.1572E-83  0.9600E+02
 -70.872  0.1572E-83  0.9600E+02
 -70.822  0.1572E-83  0.9600E+02
 -70.772  0.1572E-83  0.9600E+02
 -70.722  0.1572E-83  0.9600E+02
 -70.672  0.1572E-83  0.9600E+02
 -70.622  0.1572E-83  0.9600E+02
 -70.572  0.1572E-83  0.9600E+02
 -70.522  0.1572E-83  0.9600E+02
 -70.472  0.1572E-83  0.9600E+02
 -70.422  0.1572E-83  0.9600E+02
 -70.372  0.1572E-83  0.9600E+02
 -70.322  0.1572E-83  0.9600E+02
 -70.272  0.1572E-83  0.9600E+02
 -70.222  0.1572E-83  0.9600E+02
 -70.172  0.1572E-83  0.9600E+02
 -70.122  0.1572E-83  0.9600E+02
 -70.072  0.1572E-83  0.9600E+02
 -70.022  0.1572E-83  0.9600E+02
 -69.972  0.1572E-83  0.9600E+02
 -69.922  0.1572E-83  0.9600E+02
 -69.872  0.1572E-83  0.9600E+02
 -69.822  0.1572E-83  0.9600E+02
 -69.772  0.1572E-83  0.9600E+02
 -69.722  0.1572E-83  0.9600E+02
 -69.672  0.1572E-83  0.9600E+02
 -69.622  0.1572E-83  0.9600E+02
 -69.572  0.1572E-83  0.9600E+02
 -69.522  0.1572E-83  0.9600E+02
 -69.472  0.1572E-83  0.9600E+02
 -69.422  0.1572E-83  0.9600E+02
 -69.372  0.1572E-83  0.9600E+02
 -69.322  0.1572E-83  0.9600E+02
 -69.272  0.1572E-83  0.9600E+02
 -69.222  0.1572E-83  0.9600E+02
 -69.172  0.1572E-83  0.9600E+02
 -69.122  0.1572E-83  0.9600E+02
 -69.072  0.1572E-83  0.9600E+02
 -69.022  0.1572E-83  0.9600E+02
 -68.972  0.1572E-83  0.9600E+02
 -68.922  0.1572E-83  0.9600E+02
 -68.872  0.1572E-83  0.9600E+02
 -68.822  0.1572E-83  0.9600E+02
 -68.772  0.1572E-83  0.9600E+02
 -68.722  0.1572E-83  0.9600E+02
 -68.672  0.1572E-83  0.9600E+02
 -68.622  0.1572E-83  0.9600E+02
 -68.572  0.1572E-83  0.9600E+02
 -68.522  0.1572E-83  0.9600E+02
 -68.472  0.1572E-83  0.9600E+02
 -68.422  0.1572E-83  0.9600E+02
 -68.372  0.1572E-83  0.9600E+02
 -68.322  0.1572E-83  0.9600E+02
 -68.272  0.1572E-83  0.9600E+02
 -68.222  0.1572E-83  0.9600E+02
 -68.172  0.1572E-83  0.9600E+02
 -68.122  0.1572E-83  0.9600E+02
 -68.072  0.1572E-83  0.9600E+02
 -68.022  0.1572E-83  0.9600E+02
 -67.972  0.1572E-83  0.9600E+02
 -67.922  0.1572E-83  0.9600E+02
 -67.872  0.1572E-83  0.9600E+02
 -67.822  0.1572E-83  0.9600E+02
 -67.772  0.1572E-83  0.9600E+02
 -67.722  0.1572E-83  0.9600E+02
 -67.672  0.1572E-83  0.9600E+02
 -67.622  0.1572E-83  0.9600E+02
 -67.572  0.1572E-83  0.9600E+02
 -67.522  0.1572E-83  0.9600E+02
 -67.472  0.1572E-83  0.9600E+02
 -67.422  0.1572E-83  0.9600E+02
 -67.372  0.1572E-83  0.9600E+02
 -67.322  0.1572E-83  0.9600E+02
 -67.272  0.1572E-83  0.9600E+02
 -67.222  0.1572E-83  0.9600E+02
 -67.172  0.1572E-83  0.9600E+02
 -67.122  0.1572E-83  0.9600E+02
 -67.072  0.1572E-83  0.9600E+02
 -67.022  0.1572E-83  0.9600E+02
 -66.972  0.1572E-83  0.9600E+02
 -66.922  0.1572E-83  0.9600E+02
 -66.872  0.1572E-83  0.9600E+02
 -66.822  0.1572E-83  0.9600E+02
 -66.772  0.1572E-83  0.9600E+02
 -66.722  0.1572E-83  0.9600E+02
 -66.672  0.1572E-83  0.9600E+02
 -66.622  0.1572E-83  0.9600E+02
 -66.572  0.1572E-83  0.9600E+02
 -66.522  0.1572E-83  0.9600E+02
 -66.472  0.1572E-83  0.9600E+02
 -66.422  0.1572E-83  0.9600E+02
 -66.372  0.1572E-83  0.9600E+02
 -66.322  0.1572E-83  0.9600E+02
 -66.272  0.1572E-83  0.9600E+02
 -66.222  0.1572E-83  0.9600E+02
 -66.172  0.1572E-83  0.9600E+02
 -66.122  0.1572E-83  0.9600E+02
 -66.072  0.1572E-83  0.9600E+02
 -66.022  0.1572E-83  0.9600E+02
 -65.972  0.1572E-83  0.9600E+02
 -65.922  0.1572E-83  0.9600E+02
 -65.872  0.1572E-83  0.9600E+02
 -65.822  0.1572E-83  0.9600E+02
 -65.772  0.1572E-83  0.9600E+02
 -65.722  0.1572E-83  0.9600E+02
 -65.672  0.1572E-83  0.9600E+02
 -65.622  0.1572E-83  0.9600E+02
 -65.572  0.1572E-83  0.9600E+02
 -65.522  0.1572E-83  0.9600E+02
 -65.472  0.1572E-83  0.9600E+02
 -65.422  0.1572E-83  0.9600E+02
 -65.372  0.1572E-83  0.9600E+02
 -65.322  0.1572E-83  0.9600E+02
 -65.272  0.1572E-83  0.9600E+02
 -65.222  0.1572E-83  0.9600E+02
 -65.172  0.1572E-83  0.9600E+02
 -65.122  0.1572E-83  0.9600E+02
 -65.072  0.1572E-83  0.9600E+02
 -65.022  0.1572E-83  0.9600E+02
 -64.972  0.1572E-83  0.9600E+02
 -64.922  0.1572E-83  0.9600E+02
 -64.872  0.1572E-83  0.9600E+02
 -64.822  0.1572E-83  0.9600E+02
 -64.772  0.1572E-83  0.9600E+02
 -64.722  0.1572E-83  0.9600E+02
 -64.672  0.1572E-83  0.9600E+02
 -64.622  0.1572E-83  0.9600E+02
 -64.572  0.1572E-83  0.9600E+02
 -64.522  0.1572E-83  0.9600E+02
 -64.472  0.1572E-83  0.9600E+02
 -64.422  0.1572E-83  0.9600E+02
 -64.372  0.1572E-83  0.9600E+02
 -64.322  0.1572E-83  0.9600E+02
 -64.272  0.1572E-83  0.9600E+02
 -64.222  0.1572E-83  0.9600E+02
 -64.172  0.1572E-83  0.9600E+02
 -64.122  0.1572E-83  0.9600E+02
 -64.072  0.1572E-83  0.9600E+02
 -64.022  0.1572E-83  0.9600E+02
 -63.972  0.1572E-83  0.9600E+02
 -63.922  0.1572E-83  0.9600E+02
 -63.872  0.1572E-83  0.9600E+02
 -63.822  0.1572E-83  0.9600E+02
 -63.772  0.1572E-83  0.9600E+02
 -63.722  0.1572E-83  0.9600E+02
 -63.672  0.1572E-83  0.9600E+02
 -63.622  0.1572E-83  0.9600E+02
 -63.572  0.1572E-83  0.9600E+02
 -63.522  0.1572E-83  0.9600E+02
 -63.472  0.1572E-83  0.9600E+02
 -63.422  0.1572E-83  0.9600E+02
 -63.372  0.1572E-83  0.9600E+02
 -63.322  0.1572E-83  0.9600E+02
 -63.272  0.1572E-83  0.9600E+02
 -63.222  0.1572E-83  0.9600E+02
 -63.172  0.1572E-83  0.9600E+02
 -63.122  0.1572E-83  0.9600E+02
 -63.072  0.1572E-83  0.9600E+02
 -63.022  0.1572E-83  0.9600E+02
 -62.972  0.1572E-83  0.9600E+02
 -62.922  0.1572E-83  0.9600E+02
 -62.872  0.1572E-83  0.9600E+02
 -62.822  0.1572E-83  0.9600E+02
 -62.772  0.1572E-83  0.9600E+02
 -62.722  0.1572E-83  0.9600E+02
 -62.672  0.1572E-83  0.9600E+02
 -62.622  0.1572E-83  0.9600E+02
 -62.572  0.1572E-83  0.9600E+02
 -62.522  0.1572E-83  0.9600E+02
 -62.472  0.1572E-83  0.9600E+02
 -62.422  0.1572E-83  0.9600E+02
 -62.372  0.1572E-83  0.9600E+02
 -62.322  0.1572E-83  0.9600E+02
 -62.272  0.1572E-83  0.9600E+02
 -62.222  0.1572E-83  0.9600E+02
 -62.172  0.1572E-83  0.9600E+02
 -62.122  0.1572E-83  0.9600E+02
 -62.072  0.1572E-83  0.9600E+02
 -62.022  0.1572E-83  0.9600E+02
 -61.972  0.1572E-83  0.9600E+02
 -61.922  0.1572E-83  0.9600E+02
 -61.872  0.1572E-83  0.9600E+02
 -61.822  0.1572E-83  0.9600E+02
 -61.772  0.1572E-83  0.9600E+02
 -61.722  0.1572E-83  0.9600E+02
 -61.672  0.1572E-83  0.9600E+02
 -61.622  0.1572E-83  0.9600E+02
 -61.572  0.1572E-83  0.9600E+02
 -61.522  0.1572E-83  0.9600E+02
 -61.472  0.1572E-83  0.9600E+02
 -61.422  0.1572E-83  0.9600E+02
 -61.372  0.1572E-83  0.9600E+02
 -61.322  0.1572E-83  0.9600E+02
 -61.272  0.1572E-83  0.9600E+02
 -61.222  0.1572E-83  0.9600E+02
 -61.172  0.1572E-83  0.9600E+02
 -61.122  0.1572E-83  0.9600E+02
 -61.072  0.1572E-83  0.9600E+02
 -61.022  0.1572E-83  0.9600E+02
 -60.972  0.1572E-83  0.9600E+02
 -60.922  0.1572E-83  0.9600E+02
 -60.872  0.1572E-83  0.9600E+02
 -60.822  0.1572E-83  0.9600E+02
 -60.772  0.1572E-83  0.9600E+02
 -60.722  0.1572E-83  0.9600E+02
 -60.672  0.1572E-83  0.9600E+02
 -60.622  0.1572E-83  0.9600E+02
 -60.572  0.1572E-83  0.9600E+02
 -60.522  0.1572E-83  0.9600E+02
 -60.472  0.1572E-83  0.9600E+02
 -60.422  0.1572E-83  0.9600E+02
 -60.372  0.1572E-83  0.9600E+02
 -60.322  0.1572E-83  0.9600E+02
 -60.272  0.1572E-83  0.9600E+02
 -60.222  0.1572E-83  0.9600E+02
 -60.172  0.1572E-83  0.9600E+02
 -60.122  0.1572E-83  0.9600E+02
 -60.072  0.1572E-83  0.9600E+02
 -60.022  0.1572E-83  0.9600E+02
 -59.972  0.1572E-83  0.9600E+02
 -59.922  0.1572E-83  0.9600E+02
 -59.872  0.1572E-83  0.9600E+02
 -59.822  0.1572E-83  0.9600E+02
 -59.772  0.1572E-83  0.9600E+02
 -59.722  0.1572E-83  0.9600E+02
 -59.672  0.1572E-83  0.9600E+02
 -59.622  0.1572E-83  0.9600E+02
 -59.572  0.1572E-83  0.9600E+02
 -59.522  0.1572E-83  0.9600E+02
 -59.472  0.1572E-83  0.9600E+02
 -59.422  0.1572E-83  0.9600E+02
 -59.372  0.1572E-83  0.9600E+02
 -59.322  0.1572E-83  0.9600E+02
 -59.272  0.1572E-83  0.9600E+02
 -59.222  0.1572E-83  0.9600E+02
 -59.172  0.1572E-83  0.9600E+02
 -59.122  0.1572E-83  0.9600E+02
 -59.072  0.1572E-83  0.9600E+02
 -59.022  0.1572E-83  0.9600E+02
 -58.972  0.1572E-83  0.9600E+02
 -58.922  0.1572E-83  0.9600E+02
 -58.872  0.1572E-83  0.9600E+02
 -58.822  0.1572E-83  0.9600E+02
 -58.772  0.1572E-83  0.9600E+02
 -58.722  0.1572E-83  0.9600E+02
 -58.672  0.1572E-83  0.9600E+02
 -58.622  0.1572E-83  0.9600E+02
 -58.572  0.1572E-83  0.9600E+02
 -58.522  0.1572E-83  0.9600E+02
 -58.472  0.1572E-83  0.9600E+02
 -58.422  0.1572E-83  0.9600E+02
 -58.372  0.1572E-83  0.9600E+02
 -58.322  0.1572E-83  0.9600E+02
 -58.272  0.1572E-83  0.9600E+02
 -58.222  0.1572E-83  0.9600E+02
 -58.172  0.1572E-83  0.9600E+02
 -58.122  0.1572E-83  0.9600E+02
 -58.072  0.1572E-83  0.9600E+02
 -58.022  0.1572E-83  0.9600E+02
 -57.972  0.1572E-83  0.9600E+02
 -57.922  0.1572E-83  0.9600E+02
 -57.872  0.1572E-83  0.9600E+02
 -57.822  0.1572E-83  0.9600E+02
 -57.772  0.1572E-83  0.9600E+02
 -57.722  0.1572E-83  0.9600E+02
 -57.672  0.1572E-83  0.9600E+02
 -57.622  0.1572E-83  0.9600E+02
 -57.572  0.1572E-83  0.9600E+02
 -57.522  0.1572E-83  0.9600E+02
 -57.472  0.1572E-83  0.9600E+02
 -57.422  0.1572E-83  0.9600E+02
 -57.372  0.1572E-83  0.9600E+02
 -57.322  0.1572E-83  0.9600E+02
 -57.272  0.1572E-83  0.9600E+02
 -57.222  0.1572E-83  0.9600E+02
 -57.172  0.1572E-83  0.9600E+02
 -57.122  0.1572E-83  0.9600E+02
 -57.072  0.1572E-83  0.9600E+02
 -57.022  0.1572E-83  0.9600E+02
 -56.972  0.1572E-83  0.9600E+02
 -56.922  0.1572E-83  0.9600E+02
 -56.872  0.1572E-83  0.9600E+02
 -56.822  0.1572E-83  0.9600E+02
 -56.772  0.1572E-83  0.9600E+02
 -56.722  0.1572E-83  0.9600E+02
 -56.672  0.1572E-83  0.9600E+02
 -56.622  0.1572E-83  0.9600E+02
 -56.572  0.1572E-83  0.9600E+02
 -56.522  0.1572E-83  0.9600E+02
 -56.472  0.1572E-83  0.9600E+02
 -56.422  0.1572E-83  0.9600E+02
 -56.372  0.1572E-83  0.9600E+02
 -56.322  0.1572E-83  0.9600E+02
 -56.272  0.1572E-83  0.9600E+02
 -56.222  0.1572E-83  0.9600E+02
 -56.172  0.1572E-83  0.9600E+02
 -56.122  0.1572E-83  0.9600E+02
 -56.072  0.1572E-83  0.9600E+02
 -56.022  0.1572E-83  0.9600E+02
 -55.972  0.1572E-83  0.9600E+02
 -55.922  0.1572E-83  0.9600E+02
 -55.872  0.1572E-83  0.9600E+02
 -55.822  0.1572E-83  0.9600E+02
 -55.772  0.1572E-83  0.9600E+02
 -55.722  0.1572E-83  0.9600E+02
 -55.672  0.1572E-83  0.9600E+02
 -55.622  0.1572E-83  0.9600E+02
 -55.572  0.1572E-83  0.9600E+02
 -55.522  0.1572E-83  0.9600E+02
 -55.472  0.1572E-83  0.9600E+02
 -55.422  0.1572E-83  0.9600E+02
 -55.372  0.1572E-83  0.9600E+02
 -55.322  0.1572E-83  0.9600E+02
 -55.272  0.1572E-83  0.9600E+02
 -55.222  0.1572E-83  0.9600E+02
 -55.172  0.1572E-83  0.9600E+02
 -55.122  0.1572E-83  0.9600E+02
 -55.072  0.1572E-83  0.9600E+02
 -55.022  0.1572E-83  0.9600E+02
 -54.972  0.1572E-83  0.9600E+02
 -54.922  0.1572E-83  0.9600E+02
 -54.872  0.1572E-83  0.9600E+02
 -54.822  0.1572E-83  0.9600E+02
 -54.772  0.1572E-83  0.9600E+02
 -54.722  0.1572E-83  0.9600E+02
 -54.672  0.1572E-83  0.9600E+02
 -54.622  0.1572E-83  0.9600E+02
 -54.572  0.1572E-83  0.9600E+02
 -54.522  0.1572E-83  0.9600E+02
 -54.472  0.1572E-83  0.9600E+02
 -54.422  0.1572E-83  0.9600E+02
 -54.372  0.1572E-83  0.9600E+02
 -54.322  0.1572E-83  0.9600E+02
 -54.272  0.1572E-83  0.9600E+02
 -54.222  0.1572E-83  0.9600E+02
 -54.172  0.1572E-83  0.9600E+02
 -54.122  0.1572E-83  0.9600E+02
 -54.072  0.1572E-83  0.9600E+02
 -54.022  0.1572E-83  0.9600E+02
 -53.972  0.1572E-83  0.9600E+02
 -53.922  0.1572E-83  0.9600E+02
 -53.872  0.1572E-83  0.9600E+02
 -53.822  0.1572E-83  0.9600E+02
 -53.772  0.1572E-83  0.9600E+02
 -53.722  0.1572E-83  0.9600E+02
 -53.672  0.1572E-83  0.9600E+02
 -53.622  0.1572E-83  0.9600E+02
 -53.572  0.1572E-83  0.9600E+02
 -53.522  0.1572E-83  0.9600E+02
 -53.472  0.1572E-83  0.9600E+02
 -53.422  0.1572E-83  0.9600E+02
 -53.372  0.1572E-83  0.9600E+02
 -53.322  0.1572E-83  0.9600E+02
 -53.272  0.1572E-83  0.9600E+02
 -53.222  0.1572E-83  0.9600E+02
 -53.172  0.1572E-83  0.9600E+02
 -53.122  0.1572E-83  0.9600E+02
 -53.072  0.1572E-83  0.9600E+02
 -53.022  0.1572E-83  0.9600E+02
 -52.972  0.1572E-83  0.9600E+02
 -52.922  0.1572E-83  0.9600E+02
 -52.872  0.1572E-83  0.9600E+02
 -52.822  0.1572E-83  0.9600E+02
 -52.772  0.1572E-83  0.9600E+02
 -52.722  0.1572E-83  0.9600E+02
 -52.672  0.1572E-83  0.9600E+02
 -52.622  0.1572E-83  0.9600E+02
 -52.572  0.1572E-83  0.9600E+02
 -52.522  0.1572E-83  0.9600E+02
 -52.472  0.1572E-83  0.9600E+02
 -52.422  0.1572E-83  0.9600E+02
 -52.372  0.1572E-83  0.9600E+02
 -52.322  0.1572E-83  0.9600E+02
 -52.272  0.1572E-83  0.9600E+02
 -52.222  0.1572E-83  0.9600E+02
 -52.172  0.1572E-83  0.9600E+02
 -52.122  0.1572E-83  0.9600E+02
 -52.072  0.1572E-83  0.9600E+02
 -52.022  0.1572E-83  0.9600E+02
 -51.972  0.1572E-83  0.9600E+02
 -51.922  0.1572E-83  0.9600E+02
 -51.872  0.1572E-83  0.9600E+02
 -51.822  0.1572E-83  0.9600E+02
 -51.772  0.1572E-83  0.9600E+02
 -51.722  0.1572E-83  0.9600E+02
 -51.672  0.1572E-83  0.9600E+02
 -51.622  0.1572E-83  0.9600E+02
 -51.572  0.1572E-83  0.9600E+02
 -51.522  0.1572E-83  0.9600E+02
 -51.472  0.1572E-83  0.9600E+02
 -51.422  0.1572E-83  0.9600E+02
 -51.372  0.1572E-83  0.9600E+02
 -51.322  0.1572E-83  0.9600E+02
 -51.272  0.1572E-83  0.9600E+02
 -51.222  0.1572E-83  0.9600E+02
 -51.172  0.1572E-83  0.9600E+02
 -51.122  0.1572E-83  0.9600E+02
 -51.072  0.1572E-83  0.9600E+02
 -51.022  0.1572E-83  0.9600E+02
 -50.972  0.1572E-83  0.9600E+02
 -50.922  0.1572E-83  0.9600E+02
 -50.872  0.1572E-83  0.9600E+02
 -50.822  0.1572E-83  0.9600E+02
 -50.772  0.1572E-83  0.9600E+02
 -50.722  0.1572E-83  0.9600E+02
 -50.672  0.1572E-83  0.9600E+02
 -50.622  0.1572E-83  0.9600E+02
 -50.572  0.1572E-83  0.9600E+02
 -50.522  0.1572E-83  0.9600E+02
 -50.472  0.1572E-83  0.9600E+02
 -50.422  0.1572E-83  0.9600E+02
 -50.372  0.1572E-83  0.9600E+02
 -50.322  0.1572E-83  0.9600E+02
 -50.272  0.1572E-83  0.9600E+02
 -50.222  0.1572E-83  0.9600E+02
 -50.172  0.1572E-83  0.9600E+02
 -50.122  0.1572E-83  0.9600E+02
 -50.072  0.1572E-83  0.9600E+02
 -50.022  0.1572E-83  0.9600E+02
 -49.972  0.1572E-83  0.9600E+02
 -49.922  0.1572E-83  0.9600E+02
 -49.872  0.1572E-83  0.9600E+02
 -49.822  0.1572E-83  0.9600E+02
 -49.772  0.1572E-83  0.9600E+02
 -49.722  0.1572E-83  0.9600E+02
 -49.672  0.1572E-83  0.9600E+02
 -49.622  0.1572E-83  0.9600E+02
 -49.572  0.1572E-83  0.9600E+02
 -49.522  0.1572E-83  0.9600E+02
 -49.472  0.1572E-83  0.9600E+02
 -49.422  0.1572E-83  0.9600E+02
 -49.372  0.1572E-83  0.9600E+02
 -49.322  0.1572E-83  0.9600E+02
 -49.272  0.1572E-83  0.9600E+02
 -49.222  0.1572E-83  0.9600E+02
 -49.172  0.1572E-83  0.9600E+02
 -49.122  0.1572E-83  0.9600E+02
 -49.072  0.1572E-83  0.9600E+02
 -49.022  0.1572E-83  0.9600E+02
 -48.972  0.1572E-83  0.9600E+02
 -48.922  0.1572E-83  0.9600E+02
 -48.872  0.1572E-83  0.9600E+02
 -48.822  0.1572E-83  0.9600E+02
 -48.772  0.1572E-83  0.9600E+02
 -48.722  0.1572E-83  0.9600E+02
 -48.672  0.1572E-83  0.9600E+02
 -48.622  0.1572E-83  0.9600E+02
 -48.572  0.1572E-83  0.9600E+02
 -48.522  0.1572E-83  0.9600E+02
 -48.472  0.1572E-83  0.9600E+02
 -48.422  0.1572E-83  0.9600E+02
 -48.372  0.1572E-83  0.9600E+02
 -48.322  0.1572E-83  0.9600E+02
 -48.272  0.1572E-83  0.9600E+02
 -48.222  0.1572E-83  0.9600E+02
 -48.172  0.1572E-83  0.9600E+02
 -48.122  0.1572E-83  0.9600E+02
 -48.072  0.1572E-83  0.9600E+02
 -48.022  0.1572E-83  0.9600E+02
 -47.972  0.1572E-83  0.9600E+02
 -47.922  0.1572E-83  0.9600E+02
 -47.872  0.1572E-83  0.9600E+02
 -47.822  0.1572E-83  0.9600E+02
 -47.772  0.1572E-83  0.9600E+02
 -47.722  0.1572E-83  0.9600E+02
 -47.672  0.1572E-83  0.9600E+02
 -47.622  0.1572E-83  0.9600E+02
 -47.572  0.1572E-83  0.9600E+02
 -47.522  0.1572E-83  0.9600E+02
 -47.472  0.1572E-83  0.9600E+02
 -47.422  0.1572E-83  0.9600E+02
 -47.372  0.1572E-83  0.9600E+02
 -47.322  0.1572E-83  0.9600E+02
 -47.272  0.1572E-83  0.9600E+02
 -47.222  0.1572E-83  0.9600E+02
 -47.172  0.1572E-83  0.9600E+02
 -47.122  0.1572E-83  0.9600E+02
 -47.072  0.1572E-83  0.9600E+02
 -47.022  0.1572E-83  0.9600E+02
 -46.972  0.1572E-83  0.9600E+02
 -46.922  0.1572E-83  0.9600E+02
 -46.872  0.1572E-83  0.9600E+02
 -46.822  0.1572E-83  0.9600E+02
 -46.772  0.1572E-83  0.9600E+02
 -46.722  0.1572E-83  0.9600E+02
 -46.672  0.1572E-83  0.9600E+02
 -46.622  0.1572E-83  0.9600E+02
 -46.572  0.1572E-83  0.9600E+02
 -46.522  0.1572E-83  0.9600E+02
 -46.472  0.1572E-83  0.9600E+02
 -46.422  0.1572E-83  0.9600E+02
 -46.372  0.1572E-83  0.9600E+02
 -46.322  0.1572E-83  0.9600E+02
 -46.272  0.1572E-83  0.9600E+02
 -46.222  0.1572E-83  0.9600E+02
 -46.172  0.1572E-83  0.9600E+02
 -46.122  0.1572E-83  0.9600E+02
 -46.072  0.1572E-83  0.9600E+02
 -46.022  0.1572E-83  0.9600E+02
 -45.972  0.1572E-83  0.9600E+02
 -45.922  0.1572E-83  0.9600E+02
 -45.872  0.1572E-83  0.9600E+02
 -45.822  0.1572E-83  0.9600E+02
 -45.772  0.1572E-83  0.9600E+02
 -45.722  0.1572E-83  0.9600E+02
 -45.672  0.1572E-83  0.9600E+02
 -45.622  0.1572E-83  0.9600E+02
 -45.572  0.1572E-83  0.9600E+02
 -45.522  0.1572E-83  0.9600E+02
 -45.472  0.1572E-83  0.9600E+02
 -45.422  0.1572E-83  0.9600E+02
 -45.372  0.1572E-83  0.9600E+02
 -45.322  0.1572E-83  0.9600E+02
 -45.272  0.1572E-83  0.9600E+02
 -45.222  0.1572E-83  0.9600E+02
 -45.172  0.1572E-83  0.9600E+02
 -45.122  0.1572E-83  0.9600E+02
 -45.072  0.1572E-83  0.9600E+02
 -45.022  0.1572E-83  0.9600E+02
 -44.972  0.1572E-83  0.9600E+02
 -44.922  0.1572E-83  0.9600E+02
 -44.872  0.1572E-83  0.9600E+02
 -44.822  0.1572E-83  0.9600E+02
 -44.772  0.1572E-83  0.9600E+02
 -44.722  0.1572E-83  0.9600E+02
 -44.672  0.1572E-83  0.9600E+02
 -44.622  0.1572E-83  0.9600E+02
 -44.572  0.1572E-83  0.9600E+02
 -44.522  0.1572E-83  0.9600E+02
 -44.472  0.1572E-83  0.9600E+02
 -44.422  0.1572E-83  0.9600E+02
 -44.372  0.1572E-83  0.9600E+02
 -44.322  0.1572E-83  0.9600E+02
 -44.272  0.1572E-83  0.9600E+02
 -44.222  0.1572E-83  0.9600E+02
 -44.172  0.1572E-83  0.9600E+02
 -44.122  0.1572E-83  0.9600E+02
 -44.072  0.1572E-83  0.9600E+02
 -44.022  0.1572E-83  0.9600E+02
 -43.972  0.1572E-83  0.9600E+02
 -43.922  0.1572E-83  0.9600E+02
 -43.872  0.1572E-83  0.9600E+02
 -43.822  0.1572E-83  0.9600E+02
 -43.772  0.1572E-83  0.9600E+02
 -43.722  0.1572E-83  0.9600E+02
 -43.672  0.1572E-83  0.9600E+02
 -43.622  0.1572E-83  0.9600E+02
 -43.572  0.1572E-83  0.9600E+02
 -43.522  0.1572E-83  0.9600E+02
 -43.472  0.1572E-83  0.9600E+02
 -43.422  0.1572E-83  0.9600E+02
 -43.372  0.1572E-83  0.9600E+02
 -43.322  0.1572E-83  0.9600E+02
 -43.272  0.1572E-83  0.9600E+02
 -43.222  0.1572E-83  0.9600E+02
 -43.172  0.1572E-83  0.9600E+02
 -43.122  0.1572E-83  0.9600E+02
 -43.072  0.1572E-83  0.9600E+02
 -43.022  0.1572E-83  0.9600E+02
 -42.972  0.1572E-83  0.9600E+02
 -42.922  0.1572E-83  0.9600E+02
 -42.872  0.1572E-83  0.9600E+02
 -42.822  0.1572E-83  0.9600E+02
 -42.772  0.1572E-83  0.9600E+02
 -42.722  0.1572E-83  0.9600E+02
 -42.672  0.1572E-83  0.9600E+02
 -42.622  0.1572E-83  0.9600E+02
 -42.572  0.1572E-83  0.9600E+02
 -42.522  0.1572E-83  0.9600E+02
 -42.472  0.1572E-83  0.9600E+02
 -42.422  0.1572E-83  0.9600E+02
 -42.372  0.1572E-83  0.9600E+02
 -42.322  0.1572E-83  0.9600E+02
 -42.272  0.1572E-83  0.9600E+02
 -42.222  0.1572E-83  0.9600E+02
 -42.172  0.1572E-83  0.9600E+02
 -42.122  0.1572E-83  0.9600E+02
 -42.072  0.1572E-83  0.9600E+02
 -42.022  0.1572E-83  0.9600E+02
 -41.972  0.1572E-83  0.9600E+02
 -41.922  0.1572E-83  0.9600E+02
 -41.872  0.1572E-83  0.9600E+02
 -41.822  0.1572E-83  0.9600E+02
 -41.772  0.1572E-83  0.9600E+02
 -41.722  0.1572E-83  0.9600E+02
 -41.672  0.1572E-83  0.9600E+02
 -41.622  0.1572E-83  0.9600E+02
 -41.572  0.1572E-83  0.9600E+02
 -41.522  0.1572E-83  0.9600E+02
 -41.472  0.1572E-83  0.9600E+02
 -41.422  0.1572E-83  0.9600E+02
 -41.372  0.1572E-83  0.9600E+02
 -41.322  0.1572E-83  0.9600E+02
 -41.272  0.1572E-83  0.9600E+02
 -41.222  0.1572E-83  0.9600E+02
 -41.172  0.1572E-83  0.9600E+02
 -41.122  0.1572E-83  0.9600E+02
 -41.072  0.1572E-83  0.9600E+02
 -41.022  0.1572E-83  0.9600E+02
 -40.972  0.1572E-83  0.9600E+02
 -40.922  0.1572E-83  0.9600E+02
 -40.872  0.1572E-83  0.9600E+02
 -40.822  0.1572E-83  0.9600E+02
 -40.772  0.1572E-83  0.9600E+02
 -40.722  0.1572E-83  0.9600E+02
 -40.672  0.1572E-83  0.9600E+02
 -40.622  0.1572E-83  0.9600E+02
 -40.572  0.1572E-83  0.9600E+02
 -40.522  0.1572E-83  0.9600E+02
 -40.472  0.1572E-83  0.9600E+02
 -40.422  0.1572E-83  0.9600E+02
 -40.372  0.1572E-83  0.9600E+02
 -40.322  0.1572E-83  0.9600E+02
 -40.272  0.1572E-83  0.9600E+02
 -40.222  0.1572E-83  0.9600E+02
 -40.172  0.1572E-83  0.9600E+02
 -40.122  0.1572E-83  0.9600E+02
 -40.072  0.1572E-83  0.9600E+02
 -40.022  0.1572E-83  0.9600E+02
 -39.972  0.1572E-83  0.9600E+02
 -39.922  0.1572E-83  0.9600E+02
 -39.872  0.1572E-83  0.9600E+02
 -39.822  0.1572E-83  0.9600E+02
 -39.772  0.1572E-83  0.9600E+02
 -39.722  0.1572E-83  0.9600E+02
 -39.672  0.1572E-83  0.9600E+02
 -39.622  0.1572E-83  0.9600E+02
 -39.572  0.1572E-83  0.9600E+02
 -39.522  0.1572E-83  0.9600E+02
 -39.472  0.1572E-83  0.9600E+02
 -39.422  0.1572E-83  0.9600E+02
 -39.372  0.1572E-83  0.9600E+02
 -39.322  0.1572E-83  0.9600E+02
 -39.272  0.1572E-83  0.9600E+02
 -39.222  0.1572E-83  0.9600E+02
 -39.172  0.1572E-83  0.9600E+02
 -39.122  0.1572E-83  0.9600E+02
 -39.072  0.1572E-83  0.9600E+02
 -39.022  0.1572E-83  0.9600E+02
 -38.972  0.1572E-83  0.9600E+02
 -38.922  0.1572E-83  0.9600E+02
 -38.872  0.1572E-83  0.9600E+02
 -38.822  0.1572E-83  0.9600E+02
 -38.772  0.1572E-83  0.9600E+02
 -38.722  0.1572E-83  0.9600E+02
 -38.672  0.1572E-83  0.9600E+02
 -38.622  0.1572E-83  0.9600E+02
 -38.572  0.1572E-83  0.9600E+02
 -38.522  0.1572E-83  0.9600E+02
 -38.472  0.1572E-83  0.9600E+02
 -38.422  0.1572E-83  0.9600E+02
 -38.372  0.1572E-83  0.9600E+02
 -38.322  0.1572E-83  0.9600E+02
 -38.272  0.1572E-83  0.9600E+02
 -38.222  0.1572E-83  0.9600E+02
 -38.172  0.1572E-83  0.9600E+02
 -38.122  0.1572E-83  0.9600E+02
 -38.072  0.1572E-83  0.9600E+02
 -38.022  0.1572E-83  0.9600E+02
 -37.972  0.1572E-83  0.9600E+02
 -37.922  0.1572E-83  0.9600E+02
 -37.872  0.1572E-83  0.9600E+02
 -37.822  0.1572E-83  0.9600E+02
 -37.772  0.1572E-83  0.9600E+02
 -37.722  0.1572E-83  0.9600E+02
 -37.672  0.1572E-83  0.9600E+02
 -37.622  0.1572E-83  0.9600E+02
 -37.572  0.1572E-83  0.9600E+02
 -37.522  0.1572E-83  0.9600E+02
 -37.472  0.1572E-83  0.9600E+02
 -37.422  0.1572E-83  0.9600E+02
 -37.372  0.1572E-83  0.9600E+02
 -37.322  0.1572E-83  0.9600E+02
 -37.272  0.1572E-83  0.9600E+02
 -37.222  0.1572E-83  0.9600E+02
 -37.172  0.1572E-83  0.9600E+02
 -37.122  0.1572E-83  0.9600E+02
 -37.072  0.1572E-83  0.9600E+02
 -37.022  0.1572E-83  0.9600E+02
 -36.972  0.1572E-83  0.9600E+02
 -36.922  0.1572E-83  0.9600E+02
 -36.872  0.1572E-83  0.9600E+02
 -36.822  0.1572E-83  0.9600E+02
 -36.772  0.1572E-83  0.9600E+02
 -36.722  0.1572E-83  0.9600E+02
 -36.672  0.1572E-83  0.9600E+02
 -36.622  0.1572E-83  0.9600E+02
 -36.572  0.1572E-83  0.9600E+02
 -36.522  0.1572E-83  0.9600E+02
 -36.472  0.1572E-83  0.9600E+02
 -36.422  0.1572E-83  0.9600E+02
 -36.372  0.1572E-83  0.9600E+02
 -36.322  0.1572E-83  0.9600E+02
 -36.272  0.1572E-83  0.9600E+02
 -36.222  0.1572E-83  0.9600E+02
 -36.172  0.1572E-83  0.9600E+02
 -36.122  0.1572E-83  0.9600E+02
 -36.072  0.1572E-83  0.9600E+02
 -36.022  0.1572E-83  0.9600E+02
 -35.972  0.1572E-83  0.9600E+02
 -35.922  0.1572E-83  0.9600E+02
 -35.872  0.1572E-83  0.9600E+02
 -35.822  0.1572E-83  0.9600E+02
 -35.772  0.1572E-83  0.9600E+02
 -35.722  0.1572E-83  0.9600E+02
 -35.672  0.1572E-83  0.9600E+02
 -35.622  0.1572E-83  0.9600E+02
 -35.572  0.1572E-83  0.9600E+02
 -35.522  0.1572E-83  0.9600E+02
 -35.472  0.1572E-83  0.9600E+02
 -35.422  0.1572E-83  0.9600E+02
 -35.372  0.1572E-83  0.9600E+02
 -35.322  0.1572E-83  0.9600E+02
 -35.272  0.1572E-83  0.9600E+02
 -35.222  0.1572E-83  0.9600E+02
 -35.172  0.1572E-83  0.9600E+02
 -35.122  0.1572E-83  0.9600E+02
 -35.072  0.1572E-83  0.9600E+02
 -35.022  0.1572E-83  0.9600E+02
 -34.972  0.1572E-83  0.9600E+02
 -34.922  0.1572E-83  0.9600E+02
 -34.872  0.1572E-83  0.9600E+02
 -34.822  0.1572E-83  0.9600E+02
 -34.772  0.1572E-83  0.9600E+02
 -34.722  0.1572E-83  0.9600E+02
 -34.672  0.1572E-83  0.9600E+02
 -34.622  0.1572E-83  0.9600E+02
 -34.572  0.1572E-83  0.9600E+02
 -34.522  0.1572E-83  0.9600E+02
 -34.472  0.1572E-83  0.9600E+02
 -34.422  0.1572E-83  0.9600E+02
 -34.372  0.1572E-83  0.9600E+02
 -34.322  0.1572E-83  0.9600E+02
 -34.272  0.1572E-83  0.9600E+02
 -34.222  0.1572E-83  0.9600E+02
 -34.172  0.1572E-83  0.9600E+02
 -34.122  0.1572E-83  0.9600E+02
 -34.072  0.1572E-83  0.9600E+02
 -34.022  0.1572E-83  0.9600E+02
 -33.972  0.1572E-83  0.9600E+02
 -33.922  0.1572E-83  0.9600E+02
 -33.872  0.1572E-83  0.9600E+02
 -33.822  0.1572E-83  0.9600E+02
 -33.772  0.1572E-83  0.9600E+02
 -33.722  0.1572E-83  0.9600E+02
 -33.672  0.1572E-83  0.9600E+02
 -33.622  0.1572E-83  0.9600E+02
 -33.572  0.1572E-83  0.9600E+02
 -33.522  0.1572E-83  0.9600E+02
 -33.472  0.1572E-83  0.9600E+02
 -33.422  0.1572E-83  0.9600E+02
 -33.372  0.1572E-83  0.9600E+02
 -33.322  0.1572E-83  0.9600E+02
 -33.272  0.1572E-83  0.9600E+02
 -33.222  0.1572E-83  0.9600E+02
 -33.172  0.1572E-83  0.9600E+02
 -33.122  0.1572E-83  0.9600E+02
 -33.072  0.1572E-83  0.9600E+02
 -33.022  0.1572E-83  0.9600E+02
 -32.972  0.1572E-83  0.9600E+02
 -32.922  0.1572E-83  0.9600E+02
 -32.872  0.1572E-83  0.9600E+02
 -32.822  0.1572E-83  0.9600E+02
 -32.772  0.1572E-83  0.9600E+02
 -32.722  0.1572E-83  0.9600E+02
 -32.672  0.1572E-83  0.9600E+02
 -32.622  0.1572E-83  0.9600E+02
 -32.572  0.1572E-83  0.9600E+02
 -32.522  0.1572E-83  0.9600E+02
 -32.472  0.1572E-83  0.9600E+02
 -32.422  0.1572E-83  0.9600E+02
 -32.372  0.1572E-83  0.9600E+02
 -32.322  0.1572E-83  0.9600E+02
 -32.272  0.1572E-83  0.9600E+02
 -32.222  0.1572E-83  0.9600E+02
 -32.172  0.1572E-83  0.9600E+02
 -32.122  0.1572E-83  0.9600E+02
 -32.072  0.1572E-83  0.9600E+02
 -32.022  0.1572E-83  0.9600E+02
 -31.972  0.1572E-83  0.9600E+02
 -31.922  0.1572E-83  0.9600E+02
 -31.872  0.1572E-83  0.9600E+02
 -31.822  0.1572E-83  0.9600E+02
 -31.772  0.1572E-83  0.9600E+02
 -31.722  0.1572E-83  0.9600E+02
 -31.672  0.1572E-83  0.9600E+02
 -31.622  0.1572E-83  0.9600E+02
 -31.572  0.1572E-83  0.9600E+02
 -31.522  0.1572E-83  0.9600E+02
 -31.472  0.1572E-83  0.9600E+02
 -31.422  0.1572E-83  0.9600E+02
 -31.372  0.1572E-83  0.9600E+02
 -31.322  0.1572E-83  0.9600E+02
 -31.272  0.1572E-83  0.9600E+02
 -31.222  0.1572E-83  0.9600E+02
 -31.172  0.1572E-83  0.9600E+02
 -31.122  0.1572E-83  0.9600E+02
 -31.072  0.1572E-83  0.9600E+02
 -31.022  0.1572E-83  0.9600E+02
 -30.972  0.1572E-83  0.9600E+02
 -30.922  0.1572E-83  0.9600E+02
 -30.872  0.1572E-83  0.9600E+02
 -30.822  0.1572E-83  0.9600E+02
 -30.772  0.1572E-83  0.9600E+02
 -30.722  0.1572E-83  0.9600E+02
 -30.672  0.1572E-83  0.9600E+02
 -30.622  0.1572E-83  0.9600E+02
 -30.572  0.1572E-83  0.9600E+02
 -30.522  0.1572E-83  0.9600E+02
 -30.472  0.1572E-83  0.9600E+02
 -30.422  0.1572E-83  0.9600E+02
 -30.372  0.1572E-83  0.9600E+02
 -30.322  0.1572E-83  0.9600E+02
 -30.272  0.1572E-83  0.9600E+02
 -30.222  0.1572E-83  0.9600E+02
 -30.172  0.1572E-83  0.9600E+02
 -30.122  0.1572E-83  0.9600E+02
 -30.072  0.1572E-83  0.9600E+02
 -30.022  0.1572E-83  0.9600E+02
 -29.972  0.1572E-83  0.9600E+02
 -29.922  0.1572E-83  0.9600E+02
 -29.872  0.1572E-83  0.9600E+02
 -29.822  0.1572E-83  0.9600E+02
 -29.772  0.1572E-83  0.9600E+02
 -29.722  0.1572E-83  0.9600E+02
 -29.672  0.1572E-83  0.9600E+02
 -29.622  0.1572E-83  0.9600E+02
 -29.572  0.1572E-83  0.9600E+02
 -29.522  0.1572E-83  0.9600E+02
 -29.472  0.1572E-83  0.9600E+02
 -29.422  0.1572E-83  0.9600E+02
 -29.372  0.1572E-83  0.9600E+02
 -29.322  0.1572E-83  0.9600E+02
 -29.272  0.1572E-83  0.9600E+02
 -29.222  0.1572E-83  0.9600E+02
 -29.172  0.1572E-83  0.9600E+02
 -29.122  0.1572E-83  0.9600E+02
 -29.072  0.1572E-83  0.9600E+02
 -29.022  0.1572E-83  0.9600E+02
 -28.972  0.1572E-83  0.9600E+02
 -28.922  0.1572E-83  0.9600E+02
 -28.872  0.1572E-83  0.9600E+02
 -28.822  0.1572E-83  0.9600E+02
 -28.772  0.1572E-83  0.9600E+02
 -28.722  0.1572E-83  0.9600E+02
 -28.672  0.1572E-83  0.9600E+02
 -28.622  0.1572E-83  0.9600E+02
 -28.572  0.1572E-83  0.9600E+02
 -28.522  0.1572E-83  0.9600E+02
 -28.472  0.1572E-83  0.9600E+02
 -28.422  0.1572E-83  0.9600E+02
 -28.372  0.1572E-83  0.9600E+02
 -28.322  0.1572E-83  0.9600E+02
 -28.272  0.1572E-83  0.9600E+02
 -28.222  0.1572E-83  0.9600E+02
 -28.172  0.1572E-83  0.9600E+02
 -28.122  0.1572E-83  0.9600E+02
 -28.072  0.1572E-83  0.9600E+02
 -28.022  0.1572E-83  0.9600E+02
 -27.972  0.1572E-83  0.9600E+02
 -27.922  0.1572E-83  0.9600E+02
 -27.872  0.1572E-83  0.9600E+02
 -27.822  0.1572E-83  0.9600E+02
 -27.772  0.1572E-83  0.9600E+02
 -27.722  0.1572E-83  0.9600E+02
 -27.672  0.1572E-83  0.9600E+02
 -27.622  0.1572E-83  0.9600E+02
 -27.572  0.1572E-83  0.9600E+02
 -27.522  0.1572E-83  0.9600E+02
 -27.472  0.1572E-83  0.9600E+02
 -27.422  0.1572E-83  0.9600E+02
 -27.372  0.1572E-83  0.9600E+02
 -27.322  0.1572E-83  0.9600E+02
 -27.272  0.1572E-83  0.9600E+02
 -27.222  0.1572E-83  0.9600E+02
 -27.172  0.1572E-83  0.9600E+02
 -27.122  0.1572E-83  0.9600E+02
 -27.072  0.1572E-83  0.9600E+02
 -27.022  0.1572E-83  0.9600E+02
 -26.972  0.1572E-83  0.9600E+02
 -26.922  0.1572E-83  0.9600E+02
 -26.872  0.1572E-83  0.9600E+02
 -26.822  0.1572E-83  0.9600E+02
 -26.772  0.1572E-83  0.9600E+02
 -26.722  0.1572E-83  0.9600E+02
 -26.672  0.1572E-83  0.9600E+02
 -26.622  0.1572E-83  0.9600E+02
 -26.572  0.1572E-83  0.9600E+02
 -26.522  0.1572E-83  0.9600E+02
 -26.472  0.1572E-83  0.9600E+02
 -26.422  0.1572E-83  0.9600E+02
 -26.372  0.1572E-83  0.9600E+02
 -26.322  0.1572E-83  0.9600E+02
 -26.272  0.1572E-83  0.9600E+02
 -26.222  0.1572E-83  0.9600E+02
 -26.172  0.1572E-83  0.9600E+02
 -26.122  0.1572E-83  0.9600E+02
 -26.072  0.1572E-83  0.9600E+02
 -26.022  0.1572E-83  0.9600E+02
 -25.972  0.1572E-83  0.9600E+02
 -25.922  0.1572E-83  0.9600E+02
 -25.872  0.1572E-83  0.9600E+02
 -25.822  0.1572E-83  0.9600E+02
 -25.772  0.1572E-83  0.9600E+02
 -25.722  0.1572E-83  0.9600E+02
 -25.672  0.1572E-83  0.9600E+02
 -25.622  0.1572E-83  0.9600E+02
 -25.572  0.1572E-83  0.9600E+02
 -25.522  0.1572E-83  0.9600E+02
 -25.472  0.1572E-83  0.9600E+02
 -25.422  0.1572E-83  0.9600E+02
 -25.372  0.1572E-83  0.9600E+02
 -25.322  0.1572E-83  0.9600E+02
 -25.272  0.1572E-83  0.9600E+02
 -25.222  0.1572E-83  0.9600E+02
 -25.172  0.1572E-83  0.9600E+02
 -25.122  0.1572E-83  0.9600E+02
 -25.072  0.1572E-83  0.9600E+02
 -25.022  0.1572E-83  0.9600E+02
 -24.972  0.1572E-83  0.9600E+02
 -24.922  0.1572E-83  0.9600E+02
 -24.872  0.1572E-83  0.9600E+02
 -24.822  0.1572E-83  0.9600E+02
 -24.772  0.1572E-83  0.9600E+02
 -24.722  0.1572E-83  0.9600E+02
 -24.672  0.1572E-83  0.9600E+02
 -24.622  0.1572E-83  0.9600E+02
 -24.572  0.1572E-83  0.9600E+02
 -24.522  0.1572E-83  0.9600E+02
 -24.472  0.1572E-83  0.9600E+02
 -24.422  0.1572E-83  0.9600E+02
 -24.372  0.1572E-83  0.9600E+02
 -24.322  0.1572E-83  0.9600E+02
 -24.272  0.1572E-83  0.9600E+02
 -24.222  0.1572E-83  0.9600E+02
 -24.172  0.1572E-83  0.9600E+02
 -24.122  0.1572E-83  0.9600E+02
 -24.072  0.1572E-83  0.9600E+02
 -24.022  0.1572E-83  0.9600E+02
 -23.972  0.1572E-83  0.9600E+02
 -23.922  0.1572E-83  0.9600E+02
 -23.872  0.1572E-83  0.9600E+02
 -23.822  0.1572E-83  0.9600E+02
 -23.772  0.1572E-83  0.9600E+02
 -23.722  0.1572E-83  0.9600E+02
 -23.672  0.1572E-83  0.9600E+02
 -23.622  0.1572E-83  0.9600E+02
 -23.572  0.1572E-83  0.9600E+02
 -23.522  0.1572E-83  0.9600E+02
 -23.472  0.1572E-83  0.9600E+02
 -23.422  0.1572E-83  0.9600E+02
 -23.372  0.1572E-83  0.9600E+02
 -23.322  0.1572E-83  0.9600E+02
 -23.272  0.1572E-83  0.9600E+02
 -23.222  0.1572E-83  0.9600E+02
 -23.172  0.1572E-83  0.9600E+02
 -23.122  0.1572E-83  0.9600E+02
 -23.072  0.1572E-83  0.9600E+02
 -23.022  0.1572E-83  0.9600E+02
 -22.972  0.1572E-83  0.9600E+02
 -22.922  0.1572E-83  0.9600E+02
 -22.872  0.1572E-83  0.9600E+02
 -22.822  0.1572E-83  0.9600E+02
 -22.772  0.1572E-83  0.9600E+02
 -22.722  0.1572E-83  0.9600E+02
 -22.672  0.1572E-83  0.9600E+02
 -22.622  0.1572E-83  0.9600E+02
 -22.572  0.1572E-83  0.9600E+02
 -22.522  0.1572E-83  0.9600E+02
 -22.472  0.1572E-83  0.9600E+02
 -22.422  0.1572E-83  0.9600E+02
 -22.372  0.1572E-83  0.9600E+02
 -22.322  0.1572E-83  0.9600E+02
 -22.272  0.1572E-83  0.9600E+02
 -22.222  0.1572E-83  0.9600E+02
 -22.172  0.1572E-83  0.9600E+02
 -22.122  0.1572E-83  0.9600E+02
 -22.072  0.1572E-83  0.9600E+02
 -22.022  0.1572E-83  0.9600E+02
 -21.972  0.1572E-83  0.9600E+02
 -21.922  0.1572E-83  0.9600E+02
 -21.872  0.1572E-83  0.9600E+02
 -21.822  0.1572E-83  0.9600E+02
 -21.772  0.1572E-83  0.9600E+02
 -21.722  0.1572E-83  0.9600E+02
 -21.672  0.1572E-83  0.9600E+02
 -21.622  0.1572E-83  0.9600E+02
 -21.572  0.1572E-83  0.9600E+02
 -21.522  0.1572E-83  0.9600E+02
 -21.472  0.1572E-83  0.9600E+02
 -21.422  0.1572E-83  0.9600E+02
 -21.372  0.1572E-83  0.9600E+02
 -21.322  0.1572E-83  0.9600E+02
 -21.272  0.1572E-83  0.9600E+02
 -21.222  0.1572E-83  0.9600E+02
 -21.172  0.1572E-83  0.9600E+02
 -21.122  0.1572E-83  0.9600E+02
 -21.072  0.1572E-83  0.9600E+02
 -21.022  0.1572E-83  0.9600E+02
 -20.972  0.1572E-83  0.9600E+02
 -20.922  0.1572E-83  0.9600E+02
 -20.872  0.1572E-83  0.9600E+02
 -20.822  0.1572E-83  0.9600E+02
 -20.772  0.1572E-83  0.9600E+02
 -20.722  0.1572E-83  0.9600E+02
 -20.672  0.1572E-83  0.9600E+02
 -20.622  0.1572E-83  0.9600E+02
 -20.572  0.1572E-83  0.9600E+02
 -20.522  0.1572E-83  0.9600E+02
 -20.472  0.1572E-83  0.9600E+02
 -20.422  0.1572E-83  0.9600E+02
 -20.372  0.1572E-83  0.9600E+02
 -20.322  0.1572E-83  0.9600E+02
 -20.272  0.1572E-83  0.9600E+02
 -20.222  0.1572E-83  0.9600E+02
 -20.172  0.1572E-83  0.9600E+02
 -20.122  0.1572E-83  0.9600E+02
 -20.072  0.1572E-83  0.9600E+02
 -20.022  0.1572E-83  0.9600E+02
 -19.972  0.1572E-83  0.9600E+02
 -19.922  0.1572E-83  0.9600E+02
 -19.872  0.1572E-83  0.9600E+02
 -19.822  0.1572E-83  0.9600E+02
 -19.772  0.1572E-83  0.9600E+02
 -19.722  0.1572E-83  0.9600E+02
 -19.672  0.1572E-83  0.9600E+02
 -19.622  0.1572E-83  0.9600E+02
 -19.572  0.1572E-83  0.9600E+02
 -19.522  0.1572E-83  0.9600E+02
 -19.472  0.1572E-83  0.9600E+02
 -19.422  0.1572E-83  0.9600E+02
 -19.372  0.1572E-83  0.9600E+02
 -19.322  0.1572E-83  0.9600E+02
 -19.272  0.1572E-83  0.9600E+02
 -19.222  0.1572E-83  0.9600E+02
 -19.172  0.1572E-83  0.9600E+02
 -19.122  0.1572E-83  0.9600E+02
 -19.072  0.1572E-83  0.9600E+02
 -19.022  0.1572E-83  0.9600E+02
 -18.972  0.1572E-83  0.9600E+02
 -18.922  0.1572E-83  0.9600E+02
 -18.872  0.1572E-83  0.9600E+02
 -18.822  0.1572E-83  0.9600E+02
 -18.772  0.1572E-83  0.9600E+02
 -18.722  0.1572E-83  0.9600E+02
 -18.672  0.1572E-83  0.9600E+02
 -18.622  0.1572E-83  0.9600E+02
 -18.572  0.1572E-83  0.9600E+02
 -18.522  0.1572E-83  0.9600E+02
 -18.472  0.1572E-83  0.9600E+02
 -18.422  0.1572E-83  0.9600E+02
 -18.372  0.1572E-83  0.9600E+02
 -18.322  0.1572E-83  0.9600E+02
 -18.272  0.1572E-83  0.9600E+02
 -18.222  0.1572E-83  0.9600E+02
 -18.172  0.1572E-83  0.9600E+02
 -18.122  0.1572E-83  0.9600E+02
 -18.072  0.1572E-83  0.9600E+02
 -18.022  0.1572E-83  0.9600E+02
 -17.972  0.1572E-83  0.9600E+02
 -17.922  0.1572E-83  0.9600E+02
 -17.872  0.1572E-83  0.9600E+02
 -17.822  0.1572E-83  0.9600E+02
 -17.772  0.1572E-83  0.9600E+02
 -17.722  0.1572E-83  0.9600E+02
 -17.672  0.1572E-83  0.9600E+02
 -17.622  0.1572E-83  0.9600E+02
 -17.572  0.1572E-83  0.9600E+02
 -17.522  0.1572E-83  0.9600E+02
 -17.472  0.1572E-83  0.9600E+02
 -17.422  0.1572E-83  0.9600E+02
 -17.372  0.1572E-83  0.9600E+02
 -17.322  0.1572E-83  0.9600E+02
 -17.272  0.1572E-83  0.9600E+02
 -17.222  0.1572E-83  0.9600E+02
 -17.172  0.1572E-83  0.9600E+02
 -17.122  0.1572E-83  0.9600E+02
 -17.072  0.1572E-83  0.9600E+02
 -17.022  0.1572E-83  0.9600E+02
 -16.972  0.1572E-83  0.9600E+02
 -16.922  0.1572E-83  0.9600E+02
 -16.872  0.1572E-83  0.9600E+02
 -16.822  0.1572E-83  0.9600E+02
 -16.772  0.1572E-83  0.9600E+02
 -16.722  0.1572E-83  0.9600E+02
 -16.672  0.1572E-83  0.9600E+02
 -16.622  0.1572E-83  0.9600E+02
 -16.572  0.1572E-83  0.9600E+02
 -16.522  0.1572E-83  0.9600E+02
 -16.472  0.1572E-83  0.9600E+02
 -16.422  0.1572E-83  0.9600E+02
 -16.372  0.1572E-83  0.9600E+02
 -16.322  0.1572E-83  0.9600E+02
 -16.272  0.1572E-83  0.9600E+02
 -16.222  0.1572E-83  0.9600E+02
 -16.172  0.1572E-83  0.9600E+02
 -16.122  0.1572E-83  0.9600E+02
 -16.072  0.1572E-83  0.9600E+02
 -16.022  0.1572E-83  0.9600E+02
 -15.972  0.1572E-83  0.9600E+02
 -15.922  0.1572E-83  0.9600E+02
 -15.872  0.1572E-83  0.9600E+02
 -15.822  0.1572E-83  0.9600E+02
 -15.772  0.1572E-83  0.9600E+02
 -15.722  0.1572E-83  0.9600E+02
 -15.672  0.1572E-83  0.9600E+02
 -15.622  0.1572E-83  0.9600E+02
 -15.572  0.1572E-83  0.9600E+02
 -15.522  0.1572E-83  0.9600E+02
 -15.472  0.1572E-83  0.9600E+02
 -15.422  0.1572E-83  0.9600E+02
 -15.372  0.1572E-83  0.9600E+02
 -15.322  0.1572E-83  0.9600E+02
 -15.272  0.1572E-83  0.9600E+02
 -15.222  0.1572E-83  0.9600E+02
 -15.172  0.1572E-83  0.9600E+02
 -15.122  0.1572E-83  0.9600E+02
 -15.072  0.1572E-83  0.9600E+02
 -15.022  0.1572E-83  0.9600E+02
 -14.972  0.1572E-83  0.9600E+02
 -14.922  0.1572E-83  0.9600E+02
 -14.872  0.1688E-83  0.9600E+02
 -14.822  0.2986E-80  0.9600E+02
 -14.772  0.5795E-76  0.9600E+02
 -14.722  0.8590E-72  0.9600E+02
 -14.672  0.9720E-68  0.9600E+02
 -14.622  0.8394E-64  0.9600E+02
 -14.572  0.5534E-60  0.9600E+02
 -14.522  0.2784E-56  0.9600E+02
 -14.472  0.1069E-52  0.9600E+02
 -14.422  0.3135E-49  0.9600E+02
 -14.372  0.7016E-46  0.9600E+02
 -14.322  0.1198E-42  0.9600E+02
 -14.272  0.1562E-39  0.9600E+02
 -14.222  0.1555E-36  0.9600E+02
 -14.172  0.1181E-33  0.9600E+02
 -14.122  0.6849E-31  0.9600E+02
 -14.072  0.3031E-28  0.9600E+02
 -14.022  0.1024E-25  0.9600E+02
 -13.972  0.2640E-23  0.9600E+02
 -13.922  0.5197E-21  0.9600E+02
 -13.872  0.7808E-19  0.9600E+02
 -13.822  0.8953E-17  0.9600E+02
 -13.772  0.7837E-15  0.9600E+02
 -13.722  0.5236E-13  0.9600E+02
 -13.672  0.2670E-11  0.9600E+02
 -13.622  0.1040E-09  0.9600E+02
 -13.572  0.3089E-08  0.9600E+02
 -13.522  0.7005E-07  0.9600E+02
 -13.472  0.1213E-05  0.9600E+02
 -13.422  0.1603E-04  0.9600E+02
 -13.372  0.1616E-03  0.9600E+02
 -13.322  0.1244E-02  0.9600E+02
 -13.272  0.7313E-02  0.9600E+02
 -13.222  0.3280E-01  0.9600E+02
 -13.172  0.1123E+00  0.9601E+02
 -13.122  0.2937E+00  0.9602E+02
 -13.072  0.5872E+00  0.9605E+02
 -13.022  0.9009E+00  0.9610E+02
 -12.972  0.1076E+01  0.9615E+02
 -12.922  0.1051E+01  0.9620E+02
 -12.872  0.9531E+00  0.9625E+02
 -12.822  0.9555E+00  0.9630E+02
 -12.772  0.1054E+01  0.9635E+02
 -12.722  0.1074E+01  0.9640E+02
 -12.672  0.8917E+00  0.9645E+02
 -12.622  0.5773E+00  0.9648E+02
 -12.572  0.2940E+00  0.9649E+02
 -12.522  0.1496E+00  0.9650E+02
 -12.472  0.1863E+00  0.9651E+02
 -12.422  0.4494E+00  0.9653E+02
 -12.372  0.9661E+00  0.9658E+02
 -12.322  0.1610E+01  0.9666E+02
 -12.272  0.2070E+01  0.9676E+02
 -12.222  0.2093E+01  0.9687E+02
 -12.172  0.1771E+01  0.9696E+02
 -12.122  0.1436E+01  0.9703E+02
 -12.072  0.1267E+01  0.9709E+02
 -12.022  0.1153E+01  0.9715E+02
 -11.972  0.9276E+00  0.9720E+02
 -11.922  0.6027E+00  0.9723E+02
 -11.872  0.3194E+00  0.9724E+02
 -11.822  0.1970E+00  0.9725E+02
 -11.772  0.3009E+00  0.9727E+02
 -11.722  0.6757E+00  0.9730E+02
 -11.672  0.1277E+01  0.9737E+02
 -11.622  0.1861E+01  0.9746E+02
 -11.572  0.2070E+01  0.9756E+02
 -11.522  0.1759E+01  0.9765E+02
 -11.472  0.1140E+01  0.9771E+02
 -11.422  0.5645E+00  0.9774E+02
 -11.372  0.2150E+00  0.9775E+02
 -11.322  0.7213E-01  0.9775E+02
 -11.272  0.6152E-01  0.9775E+02
 -11.222  0.1710E+00  0.9776E+02
 -11.172  0.4681E+00  0.9778E+02
 -11.122  0.1033E+01  0.9784E+02
 -11.072  0.1838E+01  0.9793E+02
 -11.022  0.2678E+01  0.9806E+02
 -10.972  0.3292E+01  0.9823E+02
 -10.922  0.3600E+01  0.9841E+02
 -10.872  0.3740E+01  0.9859E+02
 -10.822  0.3771E+01  0.9878E+02
 -10.772  0.3498E+01  0.9896E+02
 -10.722  0.2770E+01  0.9910E+02
 -10.672  0.1808E+01  0.9919E+02
 -10.622  0.1071E+01  0.9924E+02
 -10.572  0.8978E+00  0.9928E+02
 -10.522  0.1345E+01  0.9935E+02
 -10.472  0.2185E+01  0.9946E+02
 -10.422  0.2969E+01  0.9961E+02
 -10.372  0.3301E+01  0.9977E+02
 -10.322  0.3171E+01  0.9993E+02
 -10.272  0.2902E+01  0.1001E+03
 -10.222  0.2702E+01  0.1002E+03
 -10.172  0.2496E+01  0.1003E+03
 -10.122  0.2248E+01  0.1005E+03
 -10.072  0.2157E+01  0.1006E+03
 -10.022  0.2379E+01  0.1007E+03
  -9.972  0.2772E+01  0.1008E+03
  -9.922  0.3064E+01  0.1010E+03
  -9.872  0.3097E+01  0.1011E+03
  -9.822  0.2822E+01  0.1013E+03
  -9.772  0.2276E+01  0.1014E+03
  -9.722  0.1707E+01  0.1015E+03
  -9.672  0.1548E+01  0.1015E+03
  -9.622  0.2188E+01  0.1017E+03
  -9.572  0.3763E+01  0.1018E+03
  -9.522  0.6059E+01  0.1021E+03
  -9.472  0.8482E+01  0.1026E+03
  -9.422  0.1023E+02  0.1031E+03
  -9.372  0.1071E+02  0.1036E+03
  -9.322  0.9916E+01  0.1041E+03
  -9.272  0.8510E+01  0.1045E+03
  -9.222  0.7406E+01  0.1049E+03
  -9.172  0.7293E+01  0.1053E+03
  -9.122  0.8466E+01  0.1057E+03
  -9.072  0.1078E+02  0.1062E+03
  -9.022  0.1346E+02  0.1069E+03
  -8.972  0.1528E+02  0.1077E+03
  -8.922  0.1547E+02  0.1084E+03
  -8.872  0.1446E+02  0.1092E+03
  -8.822  0.1347E+02  0.1098E+03
  -8.772  0.1335E+02  0.1105E+03
  -8.722  0.1423E+02  0.1112E+03
  -8.672  0.1592E+02  0.1120E+03
  -8.622  0.1828E+02  0.1129E+03
  -8.572  0.2103E+02  0.1140E+03
  -8.522  0.2356E+02  0.1152E+03
  -8.472  0.2511E+02  0.1164E+03
  -8.422  0.2521E+02  0.1177E+03
  -8.372  0.2401E+02  0.1189E+03
  -8.322  0.2232E+02  0.1200E+03
  -8.272  0.2121E+02  0.1211E+03
  -8.222  0.2115E+02  0.1221E+03
  -8.172  0.2147E+02  0.1232E+03
  -8.122  0.2122E+02  0.1242E+03
  -8.072  0.2059E+02  0.1253E+03
  -8.022  0.2117E+02  0.1263E+03
  -7.972  0.2440E+02  0.1276E+03
  -7.922  0.2947E+02  0.1290E+03
  -7.872  0.3327E+02  0.1307E+03
  -7.822  0.3335E+02  0.1324E+03
  -7.772  0.3055E+02  0.1339E+03
  -7.722  0.2804E+02  0.1353E+03
  -7.672  0.2837E+02  0.1367E+03
  -7.622  0.3189E+02  0.1383E+03
  -7.572  0.3699E+02  0.1401E+03
  -7.522  0.4123E+02  0.1422E+03
  -7.472  0.4333E+02  0.1444E+03
  -7.422  0.4451E+02  0.1466E+03
  -7.372  0.4718E+02  0.1490E+03
  -7.322  0.5206E+02  0.1516E+03
  -7.272  0.5736E+02  0.1544E+03
  -7.222  0.6066E+02  0.1575E+03
  -7.172  0.6076E+02  0.1605E+03
  -7.122  0.5787E+02  0.1634E+03
  -7.072  0.5284E+02  0.1660E+03
  -7.022  0.4676E+02  0.1684E+03
  -6.972  0.4107E+02  0.1704E+03
  -6.922  0.3740E+02  0.1723E+03
  -6.872  0.3693E+02  0.1741E+03
  -6.822  0.3970E+02  0.1761E+03
  -6.772  0.4450E+02  0.1784E+03
  -6.722  0.4974E+02  0.1808E+03
  -6.672  0.5380E+02  0.1835E+03
  -6.622  0.5518E+02  0.1863E+03
  -6.572  0.5336E+02  0.1890E+03
  -6.522  0.4969E+02  0.1914E+03
  -6.472  0.4677E+02  0.1938E+03
  -6.422  0.4661E+02  0.1961E+03
  -6.372  0.4950E+02  0.1986E+03
  -6.322  0.5434E+02  0.2013E+03
  -6.272  0.5969E+02  0.2043E+03
  -6.222  0.6419E+02  0.2075E+03
  -6.172  0.6605E+02  0.2108E+03
  -6.122  0.6341E+02  0.2140E+03
  -6.072  0.5580E+02  0.2168E+03
  -6.022  0.4473E+02  0.2190E+03
  -5.972  0.3263E+02  0.2206E+03
  -5.922  0.2159E+02  0.2217E+03
  -5.872  0.1291E+02  0.2224E+03
  -5.822  0.7003E+01  0.2227E+03
  -5.772  0.3571E+01  0.2229E+03
  -5.722  0.2064E+01  0.2230E+03
  -5.672  0.2133E+01  0.2231E+03
  -5.622  0.3620E+01  0.2233E+03
  -5.572  0.6081E+01  0.2236E+03
  -5.522  0.8462E+01  0.2240E+03
  -5.472  0.9555E+01  0.2245E+03
  -5.422  0.8873E+01  0.2249E+03
  -5.372  0.6938E+01  0.2253E+03
  -5.322  0.4724E+01  0.2255E+03
  -5.272  0.3000E+01  0.2257E+03
  -5.222  0.2101E+01  0.2258E+03
  -5.172  0.1962E+01  0.2259E+03
  -5.122  0.2197E+01  0.2260E+03
  -5.072  0.2341E+01  0.2261E+03
  -5.022  0.2192E+01  0.2262E+03
  -4.972  0.1879E+01  0.2263E+03
  -4.922  0.1588E+01  0.2264E+03
  -4.872  0.1436E+01  0.2264E+03
  -4.822  0.1690E+01  0.2265E+03
  -4.772  0.2876E+01  0.2267E+03
  -4.722  0.5377E+01  0.2269E+03
  -4.672  0.8706E+01  0.2274E+03
  -4.622  0.1133E+02  0.2279E+03
  -4.572  0.1167E+02  0.2285E+03
  -4.522  0.9578E+01  0.2290E+03
  -4.472  0.6448E+01  0.2293E+03
  -4.422  0.3904E+01  0.2295E+03
  -4.372  0.2551E+01  0.2296E+03
  -4.322  0.2036E+01  0.2298E+03
  -4.272  0.1801E+01  0.2298E+03
  -4.222  0.1582E+01  0.2299E+03
  -4.172  0.1459E+01  0.2300E+03
  -4.122  0.1656E+01  0.2301E+03
  -4.072  0.2260E+01  0.2302E+03
  -4.022  0.3094E+01  0.2303E+03
  -3.972  0.3847E+01  0.2305E+03
  -3.922  0.4246E+01  0.2307E+03
  -3.872  0.4132E+01  0.2310E+03
  -3.822  0.3570E+01  0.2311E+03
  -3.772  0.2906E+01  0.2313E+03
  -3.722  0.2583E+01  0.2314E+03
  -3.672  0.2924E+01  0.2316E+03
  -3.622  0.4046E+01  0.2318E+03
  -3.572  0.5735E+01  0.2320E+03
  -3.522  0.7368E+01  0.2324E+03
  -3.472  0.8141E+01  0.2328E+03
  -3.422  0.7603E+01  0.2332E+03
  -3.372  0.6052E+01  0.2335E+03
  -3.322  0.4355E+01  0.2337E+03
  -3.272  0.3290E+01  0.2339E+03
  -3.222  0.3052E+01  0.2340E+03
  -3.172  0.3338E+01  0.2342E+03
  -3.122  0.3722E+01  0.2344E+03
  -3.072  0.3902E+01  0.2346E+03
  -3.022  0.3775E+01  0.2348E+03
  -2.972  0.3411E+01  0.2349E+03
  -2.922  0.2965E+01  0.2351E+03
  -2.872  0.2542E+01  0.2352E+03
  -2.822  0.2133E+01  0.2353E+03
  -2.772  0.1723E+01  0.2354E+03
  -2.722  0.1427E+01  0.2355E+03
  -2.672  0.1442E+01  0.2356E+03
  -2.622  0.1800E+01  0.2356E+03
  -2.572  0.2268E+01  0.2358E+03
  -2.522  0.2637E+01  0.2359E+03
  -2.472  0.3085E+01  0.2360E+03
  -2.422  0.4072E+01  0.2362E+03
  -2.372  0.5818E+01  0.2365E+03
  -2.322  0.8006E+01  0.2369E+03
  -2.272  0.9930E+01  0.2374E+03
  -2.222  0.1083E+02  0.2380E+03
  -2.172  0.1028E+02  0.2385E+03
  -2.122  0.8493E+01  0.2389E+03
  -2.072  0.6237E+01  0.2392E+03
  -2.022  0.4231E+01  0.2394E+03
  -1.972  0.2753E+01  0.2396E+03
  -1.922  0.1719E+01  0.2397E+03
  -1.872  0.9854E+00  0.2397E+03
  -1.822  0.5005E+00  0.2397E+03
  -1.772  0.2716E+00  0.2398E+03
  -1.722  0.3199E+00  0.2398E+03
  -1.672  0.6695E+00  0.2398E+03
  -1.622  0.1275E+01  0.2399E+03
  -1.572  0.1921E+01  0.2400E+03
  -1.522  0.2325E+01  0.2401E+03
  -1.472  0.2429E+01  0.2402E+03
  -1.422  0.2472E+01  0.2403E+03
  -1.372  0.2670E+01  0.2405E+03
  -1.322  0.2984E+01  0.2406E+03
  -1.272  0.3302E+01  0.2408E+03
  -1.222  0.3609E+01  0.2409E+03
  -1.172  0.3851E+01  0.2411E+03
  -1.122  0.3822E+01  0.2413E+03
  -1.072  0.3336E+01  0.2415E+03
  -1.022  0.2453E+01  0.2416E+03
  -0.972  0.1474E+01  0.2417E+03
  -0.922  0.7160E+00  0.2417E+03
  -0.872  0.3133E+00  0.2417E+03
  -0.822  0.2442E+00  0.2418E+03
  -0.772  0.4692E+00  0.2418E+03
  -0.722  0.9636E+00  0.2418E+03
  -0.672  0.1622E+01  0.2419E+03
  -0.622  0.2214E+01  0.2420E+03
  -0.572  0.2518E+01  0.2421E+03
  -0.522  0.2512E+01  0.2423E+03
  -0.472  0.2421E+01  0.2424E+03
  -0.422  0.2602E+01  0.2425E+03
  -0.372  0.3286E+01  0.2427E+03
  -0.322  0.4311E+01  0.2429E+03
  -0.272  0.5225E+01  0.2432E+03
  -0.222  0.5794E+01  0.2435E+03
  -0.172  0.6260E+01  0.2438E+03
  -0.122  0.6900E+01  0.2441E+03
  -0.072  0.7595E+01  0.2445E+03
  -0.022  0.8019E+01  0.2449E+03
   0.028  0.8117E+01  0.2453E+03
   0.078  0.8080E+01  0.2457E+03
   0.128  0.7866E+01  0.2461E+03
   0.178  0.7108E+01  0.2465E+03
   0.228  0.5741E+01  0.2467E+03
   0.278  0.4422E+01  0.2470E+03
   0.328  0.4006E+01  0.2472E+03
   0.378  0.4700E+01  0.2474E+03
   0.428  0.5911E+01  0.2477E+03
   0.478  0.6844E+01  0.2480E+03
   0.528  0.7157E+01  0.2484E+03
   0.578  0.7026E+01  0.2487E+03
   0.628  0.6880E+01  0.2491E+03
   0.678  0.7284E+01  0.2495E+03
   0.728  0.8759E+01  0.2499E+03
   0.778  0.1121E+02  0.2505E+03
   0.828  0.1362E+02  0.2511E+03
   0.878  0.1468E+02  0.2519E+03
   0.928  0.1379E+02  0.2526E+03
   0.978  0.1134E+02  0.2531E+03
   1.028  0.8294E+01  0.2535E+03
   1.078  0.5715E+01  0.2538E+03
   1.128  0.4520E+01  0.2540E+03
   1.178  0.5154E+01  0.2543E+03
   1.228  0.7251E+01  0.2547E+03
   1.278  0.9687E+01  0.2552E+03
   1.328  0.1130E+02  0.2557E+03
   1.378  0.1165E+02  0.2563E+03
   1.428  0.1107E+02  0.2569E+03
   1.478  0.1006E+02  0.2574E+03
   1.528  0.9058E+01  0.2578E+03
   1.578  0.8413E+01  0.2582E+03
   1.628  0.8209E+01  0.2586E+03
   1.678  0.8045E+01  0.2590E+03
   1.728  0.7491E+01  0.2594E+03
   1.778  0.6711E+01  0.2598E+03
   1.828  0.6371E+01  0.2601E+03
   1.878  0.7051E+01  0.2604E+03
   1.928  0.8918E+01  0.2609E+03
   1.978  0.1167E+02  0.2615E+03
   2.028  0.1458E+02  0.2622E+03
   2.078  0.1692E+02  0.2630E+03
   2.128  0.1834E+02  0.2639E+03
   2.178  0.1874E+02  0.2649E+03
   2.228  0.1787E+02  0.2658E+03
   2.278  0.1539E+02  0.2665E+03
   2.328  0.1157E+02  0.2671E+03
   2.378  0.7558E+01  0.2675E+03
   2.428  0.4644E+01  0.2677E+03
   2.478  0.3332E+01  0.2679E+03
   2.528  0.3306E+01  0.2681E+03
   2.578  0.4149E+01  0.2683E+03
   2.628  0.5813E+01  0.2686E+03
   2.678  0.8258E+01  0.2690E+03
   2.728  0.1098E+02  0.2695E+03
   2.778  0.1319E+02  0.2702E+03
   2.828  0.1427E+02  0.2709E+03
   2.878  0.1394E+02  0.2716E+03
   2.928  0.1221E+02  0.2722E+03
   2.978  0.9679E+01  0.2727E+03
   3.028  0.7319E+01  0.2731E+03
   3.078  0.5730E+01  0.2733E+03
   3.128  0.4696E+01  0.2736E+03
   3.178  0.3675E+01  0.2738E+03
   3.228  0.2489E+01  0.2739E+03
   3.278  0.1377E+01  0.2740E+03
   3.328  0.6061E+00  0.2740E+03
   3.378  0.2091E+00  0.2740E+03
   3.428  0.5608E-01  0.2740E+03
   3.478  0.1163E-01  0.2740E+03
   3.528  0.1856E-02  0.2740E+03
