#  E (eV)   dos(E)     Int dos(E) EFermi =   -4.655 eV
-117.537  0.3170E-02  0.1585E-03
-117.487  0.2589E-01  0.1453E-02
-117.437  0.1615E+00  0.9527E-02
-117.387  0.7688E+00  0.4797E-01
-117.337  0.2794E+01  0.1877E+00
-117.287  0.7756E+01  0.5755E+00
-117.237  0.1645E+02  0.1398E+01
-117.187  0.2670E+02  0.2733E+01
-117.137  0.3349E+02  0.4407E+01
-117.087  0.3380E+02  0.6097E+01
-117.037  0.3148E+02  0.7671E+01
-116.987  0.3481E+02  0.9412E+01
-116.937  0.4739E+02  0.1178E+02
-116.887  0.6207E+02  0.1488E+02
-116.837  0.6639E+02  0.1820E+02
-116.787  0.5513E+02  0.2096E+02
-116.737  0.3509E+02  0.2272E+02
-116.687  0.1708E+02  0.2357E+02
-116.637  0.6349E+01  0.2389E+02
-116.587  0.1803E+01  0.2398E+02
-116.537  0.3912E+00  0.2400E+02
-116.487  0.6482E-01  0.2400E+02
-116.437  0.8205E-02  0.2400E+02
-116.387  0.7932E-03  0.2400E+02
-116.337  0.5858E-04  0.2400E+02
-116.287  0.3304E-05  0.2400E+02
-116.237  0.1424E-06  0.2400E+02
-116.187  0.4685E-08  0.2400E+02
-116.137  0.1178E-09  0.2400E+02
-116.087  0.2261E-11  0.2400E+02
-116.037  0.3315E-13  0.2400E+02
-115.987  0.3713E-15  0.2400E+02
-115.937  0.3176E-17  0.2400E+02
-115.887  0.2075E-19  0.2400E+02
-115.837  0.1035E-21  0.2400E+02
-115.787  0.3946E-24  0.2400E+02
-115.737  0.1148E-26  0.2400E+02
-115.687  0.2553E-29  0.2400E+02
-115.637  0.4334E-32  0.2400E+02
-115.587  0.5619E-35  0.2400E+02
-115.537  0.5564E-38  0.2400E+02
-115.487  0.4207E-41  0.2400E+02
-115.437  0.2430E-44  0.2400E+02
-115.387  0.1072E-47  0.2400E+02
-115.337  0.3609E-51  0.2400E+02
-115.287  0.9282E-55  0.2400E+02
-115.237  0.1823E-58  0.2400E+02
-115.187  0.2734E-62  0.2400E+02
-115.137  0.3132E-66  0.2400E+02
-115.087  0.2739E-70  0.2400E+02
-115.037  0.1829E-74  0.2400E+02
-114.987  0.9329E-79  0.2400E+02
-114.937  0.5113E-83  0.2400E+02
-114.887  0.1572E-83  0.2400E+02
-114.837  0.1572E-83  0.2400E+02
-114.787  0.1572E-83  0.2400E+02
-114.737  0.1572E-83  0.2400E+02
-114.687  0.1572E-83  0.2400E+02
-114.637  0.1572E-83  0.2400E+02
-114.587  0.1572E-83  0.2400E+02
-114.537  0.1572E-83  0.2400E+02
-114.487  0.1572E-83  0.2400E+02
-114.437  0.1572E-83  0.2400E+02
-114.387  0.1572E-83  0.2400E+02
-114.337  0.1572E-83  0.2400E+02
-114.287  0.1572E-83  0.2400E+02
-114.237  0.1572E-83  0.2400E+02
-114.187  0.1572E-83  0.2400E+02
-114.137  0.1572E-83  0.2400E+02
-114.087  0.1572E-83  0.2400E+02
-114.037  0.1572E-83  0.2400E+02
-113.987  0.1572E-83  0.2400E+02
-113.937  0.1572E-83  0.2400E+02
-113.887  0.1572E-83  0.2400E+02
-113.837  0.1572E-83  0.2400E+02
-113.787  0.1572E-83  0.2400E+02
-113.737  0.1572E-83  0.2400E+02
-113.687  0.1572E-83  0.2400E+02
-113.637  0.1572E-83  0.2400E+02
-113.587  0.1572E-83  0.2400E+02
-113.537  0.1572E-83  0.2400E+02
-113.487  0.1572E-83  0.2400E+02
-113.437  0.1572E-83  0.2400E+02
-113.387  0.1572E-83  0.2400E+02
-113.337  0.1572E-83  0.2400E+02
-113.287  0.1572E-83  0.2400E+02
-113.237  0.1572E-83  0.2400E+02
-113.187  0.1572E-83  0.2400E+02
-113.137  0.1572E-83  0.2400E+02
-113.087  0.1572E-83  0.2400E+02
-113.037  0.1572E-83  0.2400E+02
-112.987  0.1572E-83  0.2400E+02
-112.937  0.1572E-83  0.2400E+02
-112.887  0.1572E-83  0.2400E+02
-112.837  0.1572E-83  0.2400E+02
-112.787  0.1572E-83  0.2400E+02
-112.737  0.1572E-83  0.2400E+02
-112.687  0.1572E-83  0.2400E+02
-112.637  0.1572E-83  0.2400E+02
-112.587  0.1572E-83  0.2400E+02
-112.537  0.1572E-83  0.2400E+02
-112.487  0.1572E-83  0.2400E+02
-112.437  0.1572E-83  0.2400E+02
-112.387  0.1572E-83  0.2400E+02
-112.337  0.1572E-83  0.2400E+02
-112.287  0.1572E-83  0.2400E+02
-112.237  0.1572E-83  0.2400E+02
-112.187  0.1572E-83  0.2400E+02
-112.137  0.1572E-83  0.2400E+02
-112.087  0.1572E-83  0.2400E+02
-112.037  0.1572E-83  0.2400E+02
-111.987  0.1572E-83  0.2400E+02
-111.937  0.1572E-83  0.2400E+02
-111.887  0.1572E-83  0.2400E+02
-111.837  0.1572E-83  0.2400E+02
-111.787  0.1572E-83  0.2400E+02
-111.737  0.1572E-83  0.2400E+02
-111.687  0.1572E-83  0.2400E+02
-111.637  0.1572E-83  0.2400E+02
-111.587  0.1572E-83  0.2400E+02
-111.537  0.1572E-83  0.2400E+02
-111.487  0.1572E-83  0.2400E+02
-111.437  0.1572E-83  0.2400E+02
-111.387  0.1572E-83  0.2400E+02
-111.337  0.1572E-83  0.2400E+02
-111.287  0.1572E-83  0.2400E+02
-111.237  0.1572E-83  0.2400E+02
-111.187  0.1572E-83  0.2400E+02
-111.137  0.1572E-83  0.2400E+02
-111.087  0.1572E-83  0.2400E+02
-111.037  0.1572E-83  0.2400E+02
-110.987  0.1572E-83  0.2400E+02
-110.937  0.1572E-83  0.2400E+02
-110.887  0.1572E-83  0.2400E+02
-110.837  0.1572E-83  0.2400E+02
-110.787  0.1572E-83  0.2400E+02
-110.737  0.1572E-83  0.2400E+02
-110.687  0.1572E-83  0.2400E+02
-110.637  0.1572E-83  0.2400E+02
-110.587  0.1572E-83  0.2400E+02
-110.537  0.1572E-83  0.2400E+02
-110.487  0.1572E-83  0.2400E+02
-110.437  0.1572E-83  0.2400E+02
-110.387  0.1572E-83  0.2400E+02
-110.337  0.1572E-83  0.2400E+02
-110.287  0.1572E-83  0.2400E+02
-110.237  0.1572E-83  0.2400E+02
-110.187  0.1572E-83  0.2400E+02
-110.137  0.1572E-83  0.2400E+02
-110.087  0.1572E-83  0.2400E+02
-110.037  0.1572E-83  0.2400E+02
-109.987  0.1572E-83  0.2400E+02
-109.937  0.1572E-83  0.2400E+02
-109.887  0.1572E-83  0.2400E+02
-109.837  0.1572E-83  0.2400E+02
-109.787  0.1572E-83  0.2400E+02
-109.737  0.1572E-83  0.2400E+02
-109.687  0.1572E-83  0.2400E+02
-109.637  0.1572E-83  0.2400E+02
-109.587  0.1572E-83  0.2400E+02
-109.537  0.1572E-83  0.2400E+02
-109.487  0.1572E-83  0.2400E+02
-109.437  0.1572E-83  0.2400E+02
-109.387  0.1572E-83  0.2400E+02
-109.337  0.1572E-83  0.2400E+02
-109.287  0.1572E-83  0.2400E+02
-109.237  0.1572E-83  0.2400E+02
-109.187  0.1572E-83  0.2400E+02
-109.137  0.1572E-83  0.2400E+02
-109.087  0.1572E-83  0.2400E+02
-109.037  0.1572E-83  0.2400E+02
-108.987  0.1572E-83  0.2400E+02
-108.937  0.1572E-83  0.2400E+02
-108.887  0.1572E-83  0.2400E+02
-108.837  0.1572E-83  0.2400E+02
-108.787  0.1572E-83  0.2400E+02
-108.737  0.1572E-83  0.2400E+02
-108.687  0.1572E-83  0.2400E+02
-108.637  0.1572E-83  0.2400E+02
-108.587  0.1572E-83  0.2400E+02
-108.537  0.1572E-83  0.2400E+02
-108.487  0.1572E-83  0.2400E+02
-108.437  0.1572E-83  0.2400E+02
-108.387  0.1572E-83  0.2400E+02
-108.337  0.1572E-83  0.2400E+02
-108.287  0.1572E-83  0.2400E+02
-108.237  0.1572E-83  0.2400E+02
-108.187  0.1572E-83  0.2400E+02
-108.137  0.1572E-83  0.2400E+02
-108.087  0.1572E-83  0.2400E+02
-108.037  0.1572E-83  0.2400E+02
-107.987  0.1572E-83  0.2400E+02
-107.937  0.1572E-83  0.2400E+02
-107.887  0.1572E-83  0.2400E+02
-107.837  0.1572E-83  0.2400E+02
-107.787  0.1572E-83  0.2400E+02
-107.737  0.1572E-83  0.2400E+02
-107.687  0.1572E-83  0.2400E+02
-107.637  0.1572E-83  0.2400E+02
-107.587  0.1572E-83  0.2400E+02
-107.537  0.1572E-83  0.2400E+02
-107.487  0.1572E-83  0.2400E+02
-107.437  0.1572E-83  0.2400E+02
-107.387  0.1572E-83  0.2400E+02
-107.337  0.1572E-83  0.2400E+02
-107.287  0.1572E-83  0.2400E+02
-107.237  0.1572E-83  0.2400E+02
-107.187  0.1572E-83  0.2400E+02
-107.137  0.1572E-83  0.2400E+02
-107.087  0.1572E-83  0.2400E+02
-107.037  0.1572E-83  0.2400E+02
-106.987  0.1572E-83  0.2400E+02
-106.937  0.1572E-83  0.2400E+02
-106.887  0.1572E-83  0.2400E+02
-106.837  0.1572E-83  0.2400E+02
-106.787  0.1572E-83  0.2400E+02
-106.737  0.1572E-83  0.2400E+02
-106.687  0.1572E-83  0.2400E+02
-106.637  0.1572E-83  0.2400E+02
-106.587  0.1572E-83  0.2400E+02
-106.537  0.1572E-83  0.2400E+02
-106.487  0.1572E-83  0.2400E+02
-106.437  0.1572E-83  0.2400E+02
-106.387  0.1572E-83  0.2400E+02
-106.337  0.1572E-83  0.2400E+02
-106.287  0.1572E-83  0.2400E+02
-106.237  0.1572E-83  0.2400E+02
-106.187  0.1572E-83  0.2400E+02
-106.137  0.1572E-83  0.2400E+02
-106.087  0.1572E-83  0.2400E+02
-106.037  0.1572E-83  0.2400E+02
-105.987  0.1572E-83  0.2400E+02
-105.937  0.1572E-83  0.2400E+02
-105.887  0.1572E-83  0.2400E+02
-105.837  0.1572E-83  0.2400E+02
-105.787  0.1572E-83  0.2400E+02
-105.737  0.1572E-83  0.2400E+02
-105.687  0.1572E-83  0.2400E+02
-105.637  0.1572E-83  0.2400E+02
-105.587  0.1572E-83  0.2400E+02
-105.537  0.1572E-83  0.2400E+02
-105.487  0.1572E-83  0.2400E+02
-105.437  0.1572E-83  0.2400E+02
-105.387  0.1572E-83  0.2400E+02
-105.337  0.1572E-83  0.2400E+02
-105.287  0.1572E-83  0.2400E+02
-105.237  0.1572E-83  0.2400E+02
-105.187  0.1572E-83  0.2400E+02
-105.137  0.1572E-83  0.2400E+02
-105.087  0.1572E-83  0.2400E+02
-105.037  0.1572E-83  0.2400E+02
-104.987  0.1572E-83  0.2400E+02
-104.937  0.1572E-83  0.2400E+02
-104.887  0.1572E-83  0.2400E+02
-104.837  0.1572E-83  0.2400E+02
-104.787  0.1572E-83  0.2400E+02
-104.737  0.1572E-83  0.2400E+02
-104.687  0.1572E-83  0.2400E+02
-104.637  0.1572E-83  0.2400E+02
-104.587  0.1572E-83  0.2400E+02
-104.537  0.1572E-83  0.2400E+02
-104.487  0.1572E-83  0.2400E+02
-104.437  0.1572E-83  0.2400E+02
-104.387  0.1572E-83  0.2400E+02
-104.337  0.1572E-83  0.2400E+02
-104.287  0.1572E-83  0.2400E+02
-104.237  0.1572E-83  0.2400E+02
-104.187  0.1572E-83  0.2400E+02
-104.137  0.1572E-83  0.2400E+02
-104.087  0.1572E-83  0.2400E+02
-104.037  0.1572E-83  0.2400E+02
-103.987  0.1572E-83  0.2400E+02
-103.937  0.1572E-83  0.2400E+02
-103.887  0.1572E-83  0.2400E+02
-103.837  0.1572E-83  0.2400E+02
-103.787  0.1572E-83  0.2400E+02
-103.737  0.1572E-83  0.2400E+02
-103.687  0.1572E-83  0.2400E+02
-103.637  0.1572E-83  0.2400E+02
-103.587  0.1572E-83  0.2400E+02
-103.537  0.1572E-83  0.2400E+02
-103.487  0.1572E-83  0.2400E+02
-103.437  0.1572E-83  0.2400E+02
-103.387  0.1572E-83  0.2400E+02
-103.337  0.1572E-83  0.2400E+02
-103.287  0.1572E-83  0.2400E+02
-103.237  0.1572E-83  0.2400E+02
-103.187  0.1572E-83  0.2400E+02
-103.137  0.1572E-83  0.2400E+02
-103.087  0.1572E-83  0.2400E+02
-103.037  0.1572E-83  0.2400E+02
-102.987  0.1572E-83  0.2400E+02
-102.937  0.1572E-83  0.2400E+02
-102.887  0.1572E-83  0.2400E+02
-102.837  0.1572E-83  0.2400E+02
-102.787  0.1572E-83  0.2400E+02
-102.737  0.1572E-83  0.2400E+02
-102.687  0.1572E-83  0.2400E+02
-102.637  0.1572E-83  0.2400E+02
-102.587  0.1572E-83  0.2400E+02
-102.537  0.1572E-83  0.2400E+02
-102.487  0.1572E-83  0.2400E+02
-102.437  0.1572E-83  0.2400E+02
-102.387  0.1572E-83  0.2400E+02
-102.337  0.1572E-83  0.2400E+02
-102.287  0.1572E-83  0.2400E+02
-102.237  0.1572E-83  0.2400E+02
-102.187  0.1572E-83  0.2400E+02
-102.137  0.1572E-83  0.2400E+02
-102.087  0.1572E-83  0.2400E+02
-102.037  0.1572E-83  0.2400E+02
-101.987  0.1572E-83  0.2400E+02
-101.937  0.1572E-83  0.2400E+02
-101.887  0.1572E-83  0.2400E+02
-101.837  0.1572E-83  0.2400E+02
-101.787  0.1572E-83  0.2400E+02
-101.737  0.1572E-83  0.2400E+02
-101.687  0.1572E-83  0.2400E+02
-101.637  0.1572E-83  0.2400E+02
-101.587  0.1572E-83  0.2400E+02
-101.537  0.1572E-83  0.2400E+02
-101.487  0.1572E-83  0.2400E+02
-101.437  0.1572E-83  0.2400E+02
-101.387  0.1572E-83  0.2400E+02
-101.337  0.1572E-83  0.2400E+02
-101.287  0.1572E-83  0.2400E+02
-101.237  0.1572E-83  0.2400E+02
-101.187  0.1572E-83  0.2400E+02
-101.137  0.1572E-83  0.2400E+02
-101.087  0.1572E-83  0.2400E+02
-101.037  0.1572E-83  0.2400E+02
-100.987  0.1572E-83  0.2400E+02
-100.937  0.1572E-83  0.2400E+02
-100.887  0.1572E-83  0.2400E+02
-100.837  0.1572E-83  0.2400E+02
-100.787  0.1572E-83  0.2400E+02
-100.737  0.1572E-83  0.2400E+02
-100.687  0.1572E-83  0.2400E+02
-100.637  0.1572E-83  0.2400E+02
-100.587  0.1572E-83  0.2400E+02
-100.537  0.1572E-83  0.2400E+02
-100.487  0.1572E-83  0.2400E+02
-100.437  0.1572E-83  0.2400E+02
-100.387  0.1572E-83  0.2400E+02
-100.337  0.1572E-83  0.2400E+02
-100.287  0.1572E-83  0.2400E+02
-100.237  0.1572E-83  0.2400E+02
-100.187  0.1572E-83  0.2400E+02
-100.137  0.1572E-83  0.2400E+02
-100.087  0.1572E-83  0.2400E+02
-100.037  0.1572E-83  0.2400E+02
 -99.987  0.1572E-83  0.2400E+02
 -99.937  0.1572E-83  0.2400E+02
 -99.887  0.1572E-83  0.2400E+02
 -99.837  0.1572E-83  0.2400E+02
 -99.787  0.1572E-83  0.2400E+02
 -99.737  0.1572E-83  0.2400E+02
 -99.687  0.1572E-83  0.2400E+02
 -99.637  0.1572E-83  0.2400E+02
 -99.587  0.1572E-83  0.2400E+02
 -99.537  0.1572E-83  0.2400E+02
 -99.487  0.1572E-83  0.2400E+02
 -99.437  0.1572E-83  0.2400E+02
 -99.387  0.1572E-83  0.2400E+02
 -99.337  0.1572E-83  0.2400E+02
 -99.287  0.1572E-83  0.2400E+02
 -99.237  0.1572E-83  0.2400E+02
 -99.187  0.1572E-83  0.2400E+02
 -99.137  0.1572E-83  0.2400E+02
 -99.087  0.1572E-83  0.2400E+02
 -99.037  0.1572E-83  0.2400E+02
 -98.987  0.1572E-83  0.2400E+02
 -98.937  0.1572E-83  0.2400E+02
 -98.887  0.1572E-83  0.2400E+02
 -98.837  0.1572E-83  0.2400E+02
 -98.787  0.1572E-83  0.2400E+02
 -98.737  0.1572E-83  0.2400E+02
 -98.687  0.1572E-83  0.2400E+02
 -98.637  0.1572E-83  0.2400E+02
 -98.587  0.1572E-83  0.2400E+02
 -98.537  0.1572E-83  0.2400E+02
 -98.487  0.1572E-83  0.2400E+02
 -98.437  0.1572E-83  0.2400E+02
 -98.387  0.1572E-83  0.2400E+02
 -98.337  0.1572E-83  0.2400E+02
 -98.287  0.1572E-83  0.2400E+02
 -98.237  0.1572E-83  0.2400E+02
 -98.187  0.1572E-83  0.2400E+02
 -98.137  0.1572E-83  0.2400E+02
 -98.087  0.1572E-83  0.2400E+02
 -98.037  0.1572E-83  0.2400E+02
 -97.987  0.1572E-83  0.2400E+02
 -97.937  0.1572E-83  0.2400E+02
 -97.887  0.1572E-83  0.2400E+02
 -97.837  0.1572E-83  0.2400E+02
 -97.787  0.1572E-83  0.2400E+02
 -97.737  0.1572E-83  0.2400E+02
 -97.687  0.1572E-83  0.2400E+02
 -97.637  0.1572E-83  0.2400E+02
 -97.587  0.1572E-83  0.2400E+02
 -97.537  0.1572E-83  0.2400E+02
 -97.487  0.1572E-83  0.2400E+02
 -97.437  0.1572E-83  0.2400E+02
 -97.387  0.1572E-83  0.2400E+02
 -97.337  0.1572E-83  0.2400E+02
 -97.287  0.1572E-83  0.2400E+02
 -97.237  0.1572E-83  0.2400E+02
 -97.187  0.1572E-83  0.2400E+02
 -97.137  0.1572E-83  0.2400E+02
 -97.087  0.1572E-83  0.2400E+02
 -97.037  0.1572E-83  0.2400E+02
 -96.987  0.1572E-83  0.2400E+02
 -96.937  0.1572E-83  0.2400E+02
 -96.887  0.1572E-83  0.2400E+02
 -96.837  0.1572E-83  0.2400E+02
 -96.787  0.1572E-83  0.2400E+02
 -96.737  0.1572E-83  0.2400E+02
 -96.687  0.1572E-83  0.2400E+02
 -96.637  0.1572E-83  0.2400E+02
 -96.587  0.1572E-83  0.2400E+02
 -96.537  0.1572E-83  0.2400E+02
 -96.487  0.1572E-83  0.2400E+02
 -96.437  0.1572E-83  0.2400E+02
 -96.387  0.1572E-83  0.2400E+02
 -96.337  0.1572E-83  0.2400E+02
 -96.287  0.1572E-83  0.2400E+02
 -96.237  0.1572E-83  0.2400E+02
 -96.187  0.1572E-83  0.2400E+02
 -96.137  0.1572E-83  0.2400E+02
 -96.087  0.1572E-83  0.2400E+02
 -96.037  0.1572E-83  0.2400E+02
 -95.987  0.1572E-83  0.2400E+02
 -95.937  0.1572E-83  0.2400E+02
 -95.887  0.1572E-83  0.2400E+02
 -95.837  0.1572E-83  0.2400E+02
 -95.787  0.1572E-83  0.2400E+02
 -95.737  0.1572E-83  0.2400E+02
 -95.687  0.1572E-83  0.2400E+02
 -95.637  0.1572E-83  0.2400E+02
 -95.587  0.1572E-83  0.2400E+02
 -95.537  0.1572E-83  0.2400E+02
 -95.487  0.1572E-83  0.2400E+02
 -95.437  0.1572E-83  0.2400E+02
 -95.387  0.1572E-83  0.2400E+02
 -95.337  0.1572E-83  0.2400E+02
 -95.287  0.1572E-83  0.2400E+02
 -95.237  0.1572E-83  0.2400E+02
 -95.187  0.1572E-83  0.2400E+02
 -95.137  0.1572E-83  0.2400E+02
 -95.087  0.1572E-83  0.2400E+02
 -95.037  0.1572E-83  0.2400E+02
 -94.987  0.1572E-83  0.2400E+02
 -94.937  0.1572E-83  0.2400E+02
 -94.887  0.1572E-83  0.2400E+02
 -94.837  0.1572E-83  0.2400E+02
 -94.787  0.1572E-83  0.2400E+02
 -94.737  0.1572E-83  0.2400E+02
 -94.687  0.1572E-83  0.2400E+02
 -94.637  0.1572E-83  0.2400E+02
 -94.587  0.1572E-83  0.2400E+02
 -94.537  0.1572E-83  0.2400E+02
 -94.487  0.1572E-83  0.2400E+02
 -94.437  0.1572E-83  0.2400E+02
 -94.387  0.1572E-83  0.2400E+02
 -94.337  0.1572E-83  0.2400E+02
 -94.287  0.1572E-83  0.2400E+02
 -94.237  0.1572E-83  0.2400E+02
 -94.187  0.1572E-83  0.2400E+02
 -94.137  0.1572E-83  0.2400E+02
 -94.087  0.1572E-83  0.2400E+02
 -94.037  0.1572E-83  0.2400E+02
 -93.987  0.1572E-83  0.2400E+02
 -93.937  0.1572E-83  0.2400E+02
 -93.887  0.1572E-83  0.2400E+02
 -93.837  0.1572E-83  0.2400E+02
 -93.787  0.1572E-83  0.2400E+02
 -93.737  0.1572E-83  0.2400E+02
 -93.687  0.1572E-83  0.2400E+02
 -93.637  0.1572E-83  0.2400E+02
 -93.587  0.1572E-83  0.2400E+02
 -93.537  0.1572E-83  0.2400E+02
 -93.487  0.1572E-83  0.2400E+02
 -93.437  0.1572E-83  0.2400E+02
 -93.387  0.1572E-83  0.2400E+02
 -93.337  0.1572E-83  0.2400E+02
 -93.287  0.1572E-83  0.2400E+02
 -93.237  0.1572E-83  0.2400E+02
 -93.187  0.1572E-83  0.2400E+02
 -93.137  0.1572E-83  0.2400E+02
 -93.087  0.1572E-83  0.2400E+02
 -93.037  0.1572E-83  0.2400E+02
 -92.987  0.1572E-83  0.2400E+02
 -92.937  0.1572E-83  0.2400E+02
 -92.887  0.1572E-83  0.2400E+02
 -92.837  0.1572E-83  0.2400E+02
 -92.787  0.1572E-83  0.2400E+02
 -92.737  0.1572E-83  0.2400E+02
 -92.687  0.1572E-83  0.2400E+02
 -92.637  0.1572E-83  0.2400E+02
 -92.587  0.1572E-83  0.2400E+02
 -92.537  0.1572E-83  0.2400E+02
 -92.487  0.1572E-83  0.2400E+02
 -92.437  0.1572E-83  0.2400E+02
 -92.387  0.1572E-83  0.2400E+02
 -92.337  0.1572E-83  0.2400E+02
 -92.287  0.1572E-83  0.2400E+02
 -92.237  0.1572E-83  0.2400E+02
 -92.187  0.1572E-83  0.2400E+02
 -92.137  0.1572E-83  0.2400E+02
 -92.087  0.1572E-83  0.2400E+02
 -92.037  0.1572E-83  0.2400E+02
 -91.987  0.1572E-83  0.2400E+02
 -91.937  0.1572E-83  0.2400E+02
 -91.887  0.1572E-83  0.2400E+02
 -91.837  0.1572E-83  0.2400E+02
 -91.787  0.1572E-83  0.2400E+02
 -91.737  0.1572E-83  0.2400E+02
 -91.687  0.1572E-83  0.2400E+02
 -91.637  0.1572E-83  0.2400E+02
 -91.587  0.1572E-83  0.2400E+02
 -91.537  0.1572E-83  0.2400E+02
 -91.487  0.1572E-83  0.2400E+02
 -91.437  0.1572E-83  0.2400E+02
 -91.387  0.1572E-83  0.2400E+02
 -91.337  0.1572E-83  0.2400E+02
 -91.287  0.1572E-83  0.2400E+02
 -91.237  0.1572E-83  0.2400E+02
 -91.187  0.1572E-83  0.2400E+02
 -91.137  0.1572E-83  0.2400E+02
 -91.087  0.1572E-83  0.2400E+02
 -91.037  0.1572E-83  0.2400E+02
 -90.987  0.1572E-83  0.2400E+02
 -90.937  0.1572E-83  0.2400E+02
 -90.887  0.1572E-83  0.2400E+02
 -90.837  0.1572E-83  0.2400E+02
 -90.787  0.1572E-83  0.2400E+02
 -90.737  0.1572E-83  0.2400E+02
 -90.687  0.1572E-83  0.2400E+02
 -90.637  0.1572E-83  0.2400E+02
 -90.587  0.1572E-83  0.2400E+02
 -90.537  0.1572E-83  0.2400E+02
 -90.487  0.1572E-83  0.2400E+02
 -90.437  0.1572E-83  0.2400E+02
 -90.387  0.1572E-83  0.2400E+02
 -90.337  0.1572E-83  0.2400E+02
 -90.287  0.1572E-83  0.2400E+02
 -90.237  0.1572E-83  0.2400E+02
 -90.187  0.1572E-83  0.2400E+02
 -90.137  0.1572E-83  0.2400E+02
 -90.087  0.1572E-83  0.2400E+02
 -90.037  0.1572E-83  0.2400E+02
 -89.987  0.1572E-83  0.2400E+02
 -89.937  0.1572E-83  0.2400E+02
 -89.887  0.1572E-83  0.2400E+02
 -89.837  0.1572E-83  0.2400E+02
 -89.787  0.1572E-83  0.2400E+02
 -89.737  0.1572E-83  0.2400E+02
 -89.687  0.1572E-83  0.2400E+02
 -89.637  0.1572E-83  0.2400E+02
 -89.587  0.1572E-83  0.2400E+02
 -89.537  0.1572E-83  0.2400E+02
 -89.487  0.1572E-83  0.2400E+02
 -89.437  0.1572E-83  0.2400E+02
 -89.387  0.1572E-83  0.2400E+02
 -89.337  0.1572E-83  0.2400E+02
 -89.287  0.1572E-83  0.2400E+02
 -89.237  0.1572E-83  0.2400E+02
 -89.187  0.1572E-83  0.2400E+02
 -89.137  0.1572E-83  0.2400E+02
 -89.087  0.1572E-83  0.2400E+02
 -89.037  0.1572E-83  0.2400E+02
 -88.987  0.1572E-83  0.2400E+02
 -88.937  0.1572E-83  0.2400E+02
 -88.887  0.1572E-83  0.2400E+02
 -88.837  0.1572E-83  0.2400E+02
 -88.787  0.1572E-83  0.2400E+02
 -88.737  0.1572E-83  0.2400E+02
 -88.687  0.1572E-83  0.2400E+02
 -88.637  0.1572E-83  0.2400E+02
 -88.587  0.1572E-83  0.2400E+02
 -88.537  0.1572E-83  0.2400E+02
 -88.487  0.1572E-83  0.2400E+02
 -88.437  0.1572E-83  0.2400E+02
 -88.387  0.1572E-83  0.2400E+02
 -88.337  0.1572E-83  0.2400E+02
 -88.287  0.1572E-83  0.2400E+02
 -88.237  0.1572E-83  0.2400E+02
 -88.187  0.1572E-83  0.2400E+02
 -88.137  0.1572E-83  0.2400E+02
 -88.087  0.1572E-83  0.2400E+02
 -88.037  0.1572E-83  0.2400E+02
 -87.987  0.1572E-83  0.2400E+02
 -87.937  0.1572E-83  0.2400E+02
 -87.887  0.1572E-83  0.2400E+02
 -87.837  0.1572E-83  0.2400E+02
 -87.787  0.1572E-83  0.2400E+02
 -87.737  0.1572E-83  0.2400E+02
 -87.687  0.1572E-83  0.2400E+02
 -87.637  0.1572E-83  0.2400E+02
 -87.587  0.1572E-83  0.2400E+02
 -87.537  0.1572E-83  0.2400E+02
 -87.487  0.1572E-83  0.2400E+02
 -87.437  0.1572E-83  0.2400E+02
 -87.387  0.1572E-83  0.2400E+02
 -87.337  0.1572E-83  0.2400E+02
 -87.287  0.1572E-83  0.2400E+02
 -87.237  0.1572E-83  0.2400E+02
 -87.187  0.1572E-83  0.2400E+02
 -87.137  0.1572E-83  0.2400E+02
 -87.087  0.1572E-83  0.2400E+02
 -87.037  0.1572E-83  0.2400E+02
 -86.987  0.1572E-83  0.2400E+02
 -86.937  0.1572E-83  0.2400E+02
 -86.887  0.1572E-83  0.2400E+02
 -86.837  0.1572E-83  0.2400E+02
 -86.787  0.1572E-83  0.2400E+02
 -86.737  0.1572E-83  0.2400E+02
 -86.687  0.1572E-83  0.2400E+02
 -86.637  0.1572E-83  0.2400E+02
 -86.587  0.1572E-83  0.2400E+02
 -86.537  0.1572E-83  0.2400E+02
 -86.487  0.1572E-83  0.2400E+02
 -86.437  0.1572E-83  0.2400E+02
 -86.387  0.1572E-83  0.2400E+02
 -86.337  0.1572E-83  0.2400E+02
 -86.287  0.1572E-83  0.2400E+02
 -86.237  0.1572E-83  0.2400E+02
 -86.187  0.1572E-83  0.2400E+02
 -86.137  0.1572E-83  0.2400E+02
 -86.087  0.1572E-83  0.2400E+02
 -86.037  0.1572E-83  0.2400E+02
 -85.987  0.1572E-83  0.2400E+02
 -85.937  0.1572E-83  0.2400E+02
 -85.887  0.1572E-83  0.2400E+02
 -85.837  0.1572E-83  0.2400E+02
 -85.787  0.1572E-83  0.2400E+02
 -85.737  0.1572E-83  0.2400E+02
 -85.687  0.1572E-83  0.2400E+02
 -85.637  0.1572E-83  0.2400E+02
 -85.587  0.1572E-83  0.2400E+02
 -85.537  0.1572E-83  0.2400E+02
 -85.487  0.1572E-83  0.2400E+02
 -85.437  0.1572E-83  0.2400E+02
 -85.387  0.1572E-83  0.2400E+02
 -85.337  0.1572E-83  0.2400E+02
 -85.287  0.1572E-83  0.2400E+02
 -85.237  0.1572E-83  0.2400E+02
 -85.187  0.1572E-83  0.2400E+02
 -85.137  0.1572E-83  0.2400E+02
 -85.087  0.1572E-83  0.2400E+02
 -85.037  0.1572E-83  0.2400E+02
 -84.987  0.1572E-83  0.2400E+02
 -84.937  0.1572E-83  0.2400E+02
 -84.887  0.1572E-83  0.2400E+02
 -84.837  0.1572E-83  0.2400E+02
 -84.787  0.1572E-83  0.2400E+02
 -84.737  0.1572E-83  0.2400E+02
 -84.687  0.1572E-83  0.2400E+02
 -84.637  0.1572E-83  0.2400E+02
 -84.587  0.1572E-83  0.2400E+02
 -84.537  0.1572E-83  0.2400E+02
 -84.487  0.1572E-83  0.2400E+02
 -84.437  0.1572E-83  0.2400E+02
 -84.387  0.1572E-83  0.2400E+02
 -84.337  0.1572E-83  0.2400E+02
 -84.287  0.1572E-83  0.2400E+02
 -84.237  0.1572E-83  0.2400E+02
 -84.187  0.1572E-83  0.2400E+02
 -84.137  0.1572E-83  0.2400E+02
 -84.087  0.1572E-83  0.2400E+02
 -84.037  0.1572E-83  0.2400E+02
 -83.987  0.1572E-83  0.2400E+02
 -83.937  0.1572E-83  0.2400E+02
 -83.887  0.1572E-83  0.2400E+02
 -83.837  0.1572E-83  0.2400E+02
 -83.787  0.1572E-83  0.2400E+02
 -83.737  0.1572E-83  0.2400E+02
 -83.687  0.1572E-83  0.2400E+02
 -83.637  0.1572E-83  0.2400E+02
 -83.587  0.1572E-83  0.2400E+02
 -83.537  0.1572E-83  0.2400E+02
 -83.487  0.1572E-83  0.2400E+02
 -83.437  0.1572E-83  0.2400E+02
 -83.387  0.1572E-83  0.2400E+02
 -83.337  0.1572E-83  0.2400E+02
 -83.287  0.1572E-83  0.2400E+02
 -83.237  0.1572E-83  0.2400E+02
 -83.187  0.1572E-83  0.2400E+02
 -83.137  0.1572E-83  0.2400E+02
 -83.087  0.1572E-83  0.2400E+02
 -83.037  0.1572E-83  0.2400E+02
 -82.987  0.1572E-83  0.2400E+02
 -82.937  0.1572E-83  0.2400E+02
 -82.887  0.1572E-83  0.2400E+02
 -82.837  0.1572E-83  0.2400E+02
 -82.787  0.1572E-83  0.2400E+02
 -82.737  0.1572E-83  0.2400E+02
 -82.687  0.1572E-83  0.2400E+02
 -82.637  0.1572E-83  0.2400E+02
 -82.587  0.1572E-83  0.2400E+02
 -82.537  0.1572E-83  0.2400E+02
 -82.487  0.1572E-83  0.2400E+02
 -82.437  0.1572E-83  0.2400E+02
 -82.387  0.1572E-83  0.2400E+02
 -82.337  0.1572E-83  0.2400E+02
 -82.287  0.1572E-83  0.2400E+02
 -82.237  0.1572E-83  0.2400E+02
 -82.187  0.1572E-83  0.2400E+02
 -82.137  0.1572E-83  0.2400E+02
 -82.087  0.1572E-83  0.2400E+02
 -82.037  0.1572E-83  0.2400E+02
 -81.987  0.1572E-83  0.2400E+02
 -81.937  0.1572E-83  0.2400E+02
 -81.887  0.1572E-83  0.2400E+02
 -81.837  0.1572E-83  0.2400E+02
 -81.787  0.1572E-83  0.2400E+02
 -81.737  0.1572E-83  0.2400E+02
 -81.687  0.1572E-83  0.2400E+02
 -81.637  0.1572E-83  0.2400E+02
 -81.587  0.1572E-83  0.2400E+02
 -81.537  0.1572E-83  0.2400E+02
 -81.487  0.1572E-83  0.2400E+02
 -81.437  0.1572E-83  0.2400E+02
 -81.387  0.1572E-83  0.2400E+02
 -81.337  0.1572E-83  0.2400E+02
 -81.287  0.1572E-83  0.2400E+02
 -81.237  0.1572E-83  0.2400E+02
 -81.187  0.1572E-83  0.2400E+02
 -81.137  0.1572E-83  0.2400E+02
 -81.087  0.1572E-83  0.2400E+02
 -81.037  0.1572E-83  0.2400E+02
 -80.987  0.1572E-83  0.2400E+02
 -80.937  0.1572E-83  0.2400E+02
 -80.887  0.1572E-83  0.2400E+02
 -80.837  0.1572E-83  0.2400E+02
 -80.787  0.1572E-83  0.2400E+02
 -80.737  0.1572E-83  0.2400E+02
 -80.687  0.1572E-83  0.2400E+02
 -80.637  0.1572E-83  0.2400E+02
 -80.587  0.1572E-83  0.2400E+02
 -80.537  0.1572E-83  0.2400E+02
 -80.487  0.1572E-83  0.2400E+02
 -80.437  0.1572E-83  0.2400E+02
 -80.387  0.1572E-83  0.2400E+02
 -80.337  0.1572E-83  0.2400E+02
 -80.287  0.1572E-83  0.2400E+02
 -80.237  0.1572E-83  0.2400E+02
 -80.187  0.1572E-83  0.2400E+02
 -80.137  0.1572E-83  0.2400E+02
 -80.087  0.1572E-83  0.2400E+02
 -80.037  0.1572E-83  0.2400E+02
 -79.987  0.1572E-83  0.2400E+02
 -79.937  0.1572E-83  0.2400E+02
 -79.887  0.1572E-83  0.2400E+02
 -79.837  0.1572E-83  0.2400E+02
 -79.787  0.1572E-83  0.2400E+02
 -79.737  0.1572E-83  0.2400E+02
 -79.687  0.1572E-83  0.2400E+02
 -79.637  0.1572E-83  0.2400E+02
 -79.587  0.1572E-83  0.2400E+02
 -79.537  0.1572E-83  0.2400E+02
 -79.487  0.1572E-83  0.2400E+02
 -79.437  0.1572E-83  0.2400E+02
 -79.387  0.1572E-83  0.2400E+02
 -79.337  0.1572E-83  0.2400E+02
 -79.287  0.1572E-83  0.2400E+02
 -79.237  0.1572E-83  0.2400E+02
 -79.187  0.1572E-83  0.2400E+02
 -79.137  0.1572E-83  0.2400E+02
 -79.087  0.1572E-83  0.2400E+02
 -79.037  0.1572E-83  0.2400E+02
 -78.987  0.1572E-83  0.2400E+02
 -78.937  0.1572E-83  0.2400E+02
 -78.887  0.1572E-83  0.2400E+02
 -78.837  0.1572E-83  0.2400E+02
 -78.787  0.1572E-83  0.2400E+02
 -78.737  0.1572E-83  0.2400E+02
 -78.687  0.1572E-83  0.2400E+02
 -78.637  0.1572E-83  0.2400E+02
 -78.587  0.1572E-83  0.2400E+02
 -78.537  0.1572E-83  0.2400E+02
 -78.487  0.1572E-83  0.2400E+02
 -78.437  0.1572E-83  0.2400E+02
 -78.387  0.1572E-83  0.2400E+02
 -78.337  0.1572E-83  0.2400E+02
 -78.287  0.1572E-83  0.2400E+02
 -78.237  0.1572E-83  0.2400E+02
 -78.187  0.1572E-83  0.2400E+02
 -78.137  0.1572E-83  0.2400E+02
 -78.087  0.1572E-83  0.2400E+02
 -78.037  0.1572E-83  0.2400E+02
 -77.987  0.1572E-83  0.2400E+02
 -77.937  0.1572E-83  0.2400E+02
 -77.887  0.1572E-83  0.2400E+02
 -77.837  0.1572E-83  0.2400E+02
 -77.787  0.1572E-83  0.2400E+02
 -77.737  0.1572E-83  0.2400E+02
 -77.687  0.1572E-83  0.2400E+02
 -77.637  0.1572E-83  0.2400E+02
 -77.587  0.1572E-83  0.2400E+02
 -77.537  0.1572E-83  0.2400E+02
 -77.487  0.1572E-83  0.2400E+02
 -77.437  0.1572E-83  0.2400E+02
 -77.387  0.1572E-83  0.2400E+02
 -77.337  0.1572E-83  0.2400E+02
 -77.287  0.1572E-83  0.2400E+02
 -77.237  0.1572E-83  0.2400E+02
 -77.187  0.1572E-83  0.2400E+02
 -77.137  0.1572E-83  0.2400E+02
 -77.087  0.1572E-83  0.2400E+02
 -77.037  0.1572E-83  0.2400E+02
 -76.987  0.1572E-83  0.2400E+02
 -76.937  0.1572E-83  0.2400E+02
 -76.887  0.1572E-83  0.2400E+02
 -76.837  0.1572E-83  0.2400E+02
 -76.787  0.1572E-83  0.2400E+02
 -76.737  0.1572E-83  0.2400E+02
 -76.687  0.1572E-83  0.2400E+02
 -76.637  0.1572E-83  0.2400E+02
 -76.587  0.1572E-83  0.2400E+02
 -76.537  0.1572E-83  0.2400E+02
 -76.487  0.1572E-83  0.2400E+02
 -76.437  0.7192E-82  0.2400E+02
 -76.387  0.1615E-77  0.2400E+02
 -76.337  0.2828E-73  0.2400E+02
 -76.287  0.3784E-69  0.2400E+02
 -76.237  0.3868E-65  0.2400E+02
 -76.187  0.3021E-61  0.2400E+02
 -76.137  0.1803E-57  0.2400E+02
 -76.087  0.8224E-54  0.2400E+02
 -76.037  0.2866E-50  0.2400E+02
 -75.987  0.7635E-47  0.2400E+02
 -75.937  0.1555E-43  0.2400E+02
 -75.887  0.2420E-40  0.2400E+02
 -75.837  0.2880E-37  0.2400E+02
 -75.787  0.2621E-34  0.2400E+02
 -75.737  0.1824E-31  0.2400E+02
 -75.687  0.9715E-29  0.2400E+02
 -75.637  0.3958E-26  0.2400E+02
 -75.587  0.1234E-23  0.2400E+02
 -75.537  0.2948E-21  0.2400E+02
 -75.487  0.5390E-19  0.2400E+02
 -75.437  0.7552E-17  0.2400E+02
 -75.387  0.8109E-15  0.2400E+02
 -75.337  0.6678E-13  0.2400E+02
 -75.287  0.4219E-11  0.2400E+02
 -75.237  0.2046E-09  0.2400E+02
 -75.187  0.7624E-08  0.2400E+02
 -75.137  0.2183E-06  0.2400E+02
 -75.087  0.4806E-05  0.2400E+02
 -75.037  0.8142E-04  0.2400E+02
 -74.987  0.1062E-02  0.2400E+02
 -74.937  0.1067E-01  0.2400E+02
 -74.887  0.8265E-01  0.2400E+02
 -74.837  0.4935E+00  0.2403E+02
 -74.787  0.2272E+01  0.2414E+02
 -74.737  0.8073E+01  0.2455E+02
 -74.687  0.2213E+02  0.2565E+02
 -74.637  0.4685E+02  0.2800E+02
 -74.587  0.7684E+02  0.3184E+02
 -74.537  0.9870E+02  0.3677E+02
 -74.487  0.1034E+03  0.4194E+02
 -74.437  0.9945E+02  0.4691E+02
 -74.387  0.1077E+03  0.5230E+02
 -74.337  0.1380E+03  0.5920E+02
 -74.287  0.1746E+03  0.6793E+02
 -74.237  0.1881E+03  0.7733E+02
 -74.187  0.1633E+03  0.8549E+02
 -74.137  0.1123E+03  0.9111E+02
 -74.087  0.6079E+02  0.9415E+02
 -74.037  0.2580E+02  0.9544E+02
 -73.987  0.8547E+01  0.9586E+02
 -73.937  0.2203E+01  0.9597E+02
 -73.887  0.4404E+00  0.9600E+02
 -73.837  0.6806E-01  0.9600E+02
 -73.787  0.8114E-02  0.9600E+02
 -73.737  0.7447E-03  0.9600E+02
 -73.687  0.5254E-04  0.9600E+02
 -73.637  0.2845E-05  0.9600E+02
 -73.587  0.1182E-06  0.9600E+02
 -73.537  0.3761E-08  0.9600E+02
 -73.487  0.9166E-10  0.9600E+02
 -73.437  0.1710E-11  0.9600E+02
 -73.387  0.2440E-13  0.9600E+02
 -73.337  0.2663E-15  0.9600E+02
 -73.287  0.2223E-17  0.9600E+02
 -73.237  0.1418E-19  0.9600E+02
 -73.187  0.6916E-22  0.9600E+02
 -73.137  0.2577E-24  0.9600E+02
 -73.087  0.7340E-27  0.9600E+02
 -73.037  0.1597E-29  0.9600E+02
 -72.987  0.2655E-32  0.9600E+02
 -72.937  0.3372E-35  0.9600E+02
 -72.887  0.3271E-38  0.9600E+02
 -72.837  0.2424E-41  0.9600E+02
 -72.787  0.1372E-44  0.9600E+02
 -72.737  0.5931E-48  0.9600E+02
 -72.687  0.1958E-51  0.9600E+02
 -72.637  0.4939E-55  0.9600E+02
 -72.587  0.9512E-59  0.9600E+02
 -72.537  0.1399E-62  0.9600E+02
 -72.487  0.1572E-66  0.9600E+02
 -72.437  0.1348E-70  0.9600E+02
 -72.387  0.8830E-75  0.9600E+02
 -72.337  0.4417E-79  0.9600E+02
 -72.287  0.3166E-83  0.9600E+02
 -72.237  0.1572E-83  0.9600E+02
 -72.187  0.1572E-83  0.9600E+02
 -72.137  0.1572E-83  0.9600E+02
 -72.087  0.1572E-83  0.9600E+02
 -72.037  0.1572E-83  0.9600E+02
 -71.987  0.1572E-83  0.9600E+02
 -71.937  0.1572E-83  0.9600E+02
 -71.887  0.1572E-83  0.9600E+02
 -71.837  0.1572E-83  0.9600E+02
 -71.787  0.1572E-83  0.9600E+02
 -71.737  0.1572E-83  0.9600E+02
 -71.687  0.1572E-83  0.9600E+02
 -71.637  0.1572E-83  0.9600E+02
 -71.587  0.1572E-83  0.9600E+02
 -71.537  0.1572E-83  0.9600E+02
 -71.487  0.1572E-83  0.9600E+02
 -71.437  0.1572E-83  0.9600E+02
 -71.387  0.1572E-83  0.9600E+02
 -71.337  0.1572E-83  0.9600E+02
 -71.287  0.1572E-83  0.9600E+02
 -71.237  0.1572E-83  0.9600E+02
 -71.187  0.1572E-83  0.9600E+02
 -71.137  0.1572E-83  0.9600E+02
 -71.087  0.1572E-83  0.9600E+02
 -71.037  0.1572E-83  0.9600E+02
 -70.987  0.1572E-83  0.9600E+02
 -70.937  0.1572E-83  0.9600E+02
 -70.887  0.1572E-83  0.9600E+02
 -70.837  0.1572E-83  0.9600E+02
 -70.787  0.1572E-83  0.9600E+02
 -70.737  0.1572E-83  0.9600E+02
 -70.687  0.1572E-83  0.9600E+02
 -70.637  0.1572E-83  0.9600E+02
 -70.587  0.1572E-83  0.9600E+02
 -70.537  0.1572E-83  0.9600E+02
 -70.487  0.1572E-83  0.9600E+02
 -70.437  0.1572E-83  0.9600E+02
 -70.387  0.1572E-83  0.9600E+02
 -70.337  0.1572E-83  0.9600E+02
 -70.287  0.1572E-83  0.9600E+02
 -70.237  0.1572E-83  0.9600E+02
 -70.187  0.1572E-83  0.9600E+02
 -70.137  0.1572E-83  0.9600E+02
 -70.087  0.1572E-83  0.9600E+02
 -70.037  0.1572E-83  0.9600E+02
 -69.987  0.1572E-83  0.9600E+02
 -69.937  0.1572E-83  0.9600E+02
 -69.887  0.1572E-83  0.9600E+02
 -69.837  0.1572E-83  0.9600E+02
 -69.787  0.1572E-83  0.9600E+02
 -69.737  0.1572E-83  0.9600E+02
 -69.687  0.1572E-83  0.9600E+02
 -69.637  0.1572E-83  0.9600E+02
 -69.587  0.1572E-83  0.9600E+02
 -69.537  0.1572E-83  0.9600E+02
 -69.487  0.1572E-83  0.9600E+02
 -69.437  0.1572E-83  0.9600E+02
 -69.387  0.1572E-83  0.9600E+02
 -69.337  0.1572E-83  0.9600E+02
 -69.287  0.1572E-83  0.9600E+02
 -69.237  0.1572E-83  0.9600E+02
 -69.187  0.1572E-83  0.9600E+02
 -69.137  0.1572E-83  0.9600E+02
 -69.087  0.1572E-83  0.9600E+02
 -69.037  0.1572E-83  0.9600E+02
 -68.987  0.1572E-83  0.9600E+02
 -68.937  0.1572E-83  0.9600E+02
 -68.887  0.1572E-83  0.9600E+02
 -68.837  0.1572E-83  0.9600E+02
 -68.787  0.1572E-83  0.9600E+02
 -68.737  0.1572E-83  0.9600E+02
 -68.687  0.1572E-83  0.9600E+02
 -68.637  0.1572E-83  0.9600E+02
 -68.587  0.1572E-83  0.9600E+02
 -68.537  0.1572E-83  0.9600E+02
 -68.487  0.1572E-83  0.9600E+02
 -68.437  0.1572E-83  0.9600E+02
 -68.387  0.1572E-83  0.9600E+02
 -68.337  0.1572E-83  0.9600E+02
 -68.287  0.1572E-83  0.9600E+02
 -68.237  0.1572E-83  0.9600E+02
 -68.187  0.1572E-83  0.9600E+02
 -68.137  0.1572E-83  0.9600E+02
 -68.087  0.1572E-83  0.9600E+02
 -68.037  0.1572E-83  0.9600E+02
 -67.987  0.1572E-83  0.9600E+02
 -67.937  0.1572E-83  0.9600E+02
 -67.887  0.1572E-83  0.9600E+02
 -67.837  0.1572E-83  0.9600E+02
 -67.787  0.1572E-83  0.9600E+02
 -67.737  0.1572E-83  0.9600E+02
 -67.687  0.1572E-83  0.9600E+02
 -67.637  0.1572E-83  0.9600E+02
 -67.587  0.1572E-83  0.9600E+02
 -67.537  0.1572E-83  0.9600E+02
 -67.487  0.1572E-83  0.9600E+02
 -67.437  0.1572E-83  0.9600E+02
 -67.387  0.1572E-83  0.9600E+02
 -67.337  0.1572E-83  0.9600E+02
 -67.287  0.1572E-83  0.9600E+02
 -67.237  0.1572E-83  0.9600E+02
 -67.187  0.1572E-83  0.9600E+02
 -67.137  0.1572E-83  0.9600E+02
 -67.087  0.1572E-83  0.9600E+02
 -67.037  0.1572E-83  0.9600E+02
 -66.987  0.1572E-83  0.9600E+02
 -66.937  0.1572E-83  0.9600E+02
 -66.887  0.1572E-83  0.9600E+02
 -66.837  0.1572E-83  0.9600E+02
 -66.787  0.1572E-83  0.9600E+02
 -66.737  0.1572E-83  0.9600E+02
 -66.687  0.1572E-83  0.9600E+02
 -66.637  0.1572E-83  0.9600E+02
 -66.587  0.1572E-83  0.9600E+02
 -66.537  0.1572E-83  0.9600E+02
 -66.487  0.1572E-83  0.9600E+02
 -66.437  0.1572E-83  0.9600E+02
 -66.387  0.1572E-83  0.9600E+02
 -66.337  0.1572E-83  0.9600E+02
 -66.287  0.1572E-83  0.9600E+02
 -66.237  0.1572E-83  0.9600E+02
 -66.187  0.1572E-83  0.9600E+02
 -66.137  0.1572E-83  0.9600E+02
 -66.087  0.1572E-83  0.9600E+02
 -66.037  0.1572E-83  0.9600E+02
 -65.987  0.1572E-83  0.9600E+02
 -65.937  0.1572E-83  0.9600E+02
 -65.887  0.1572E-83  0.9600E+02
 -65.837  0.1572E-83  0.9600E+02
 -65.787  0.1572E-83  0.9600E+02
 -65.737  0.1572E-83  0.9600E+02
 -65.687  0.1572E-83  0.9600E+02
 -65.637  0.1572E-83  0.9600E+02
 -65.587  0.1572E-83  0.9600E+02
 -65.537  0.1572E-83  0.9600E+02
 -65.487  0.1572E-83  0.9600E+02
 -65.437  0.1572E-83  0.9600E+02
 -65.387  0.1572E-83  0.9600E+02
 -65.337  0.1572E-83  0.9600E+02
 -65.287  0.1572E-83  0.9600E+02
 -65.237  0.1572E-83  0.9600E+02
 -65.187  0.1572E-83  0.9600E+02
 -65.137  0.1572E-83  0.9600E+02
 -65.087  0.1572E-83  0.9600E+02
 -65.037  0.1572E-83  0.9600E+02
 -64.987  0.1572E-83  0.9600E+02
 -64.937  0.1572E-83  0.9600E+02
 -64.887  0.1572E-83  0.9600E+02
 -64.837  0.1572E-83  0.9600E+02
 -64.787  0.1572E-83  0.9600E+02
 -64.737  0.1572E-83  0.9600E+02
 -64.687  0.1572E-83  0.9600E+02
 -64.637  0.1572E-83  0.9600E+02
 -64.587  0.1572E-83  0.9600E+02
 -64.537  0.1572E-83  0.9600E+02
 -64.487  0.1572E-83  0.9600E+02
 -64.437  0.1572E-83  0.9600E+02
 -64.387  0.1572E-83  0.9600E+02
 -64.337  0.1572E-83  0.9600E+02
 -64.287  0.1572E-83  0.9600E+02
 -64.237  0.1572E-83  0.9600E+02
 -64.187  0.1572E-83  0.9600E+02
 -64.137  0.1572E-83  0.9600E+02
 -64.087  0.1572E-83  0.9600E+02
 -64.037  0.1572E-83  0.9600E+02
 -63.987  0.1572E-83  0.9600E+02
 -63.937  0.1572E-83  0.9600E+02
 -63.887  0.1572E-83  0.9600E+02
 -63.837  0.1572E-83  0.9600E+02
 -63.787  0.1572E-83  0.9600E+02
 -63.737  0.1572E-83  0.9600E+02
 -63.687  0.1572E-83  0.9600E+02
 -63.637  0.1572E-83  0.9600E+02
 -63.587  0.1572E-83  0.9600E+02
 -63.537  0.1572E-83  0.9600E+02
 -63.487  0.1572E-83  0.9600E+02
 -63.437  0.1572E-83  0.9600E+02
 -63.387  0.1572E-83  0.9600E+02
 -63.337  0.1572E-83  0.9600E+02
 -63.287  0.1572E-83  0.9600E+02
 -63.237  0.1572E-83  0.9600E+02
 -63.187  0.1572E-83  0.9600E+02
 -63.137  0.1572E-83  0.9600E+02
 -63.087  0.1572E-83  0.9600E+02
 -63.037  0.1572E-83  0.9600E+02
 -62.987  0.1572E-83  0.9600E+02
 -62.937  0.1572E-83  0.9600E+02
 -62.887  0.1572E-83  0.9600E+02
 -62.837  0.1572E-83  0.9600E+02
 -62.787  0.1572E-83  0.9600E+02
 -62.737  0.1572E-83  0.9600E+02
 -62.687  0.1572E-83  0.9600E+02
 -62.637  0.1572E-83  0.9600E+02
 -62.587  0.1572E-83  0.9600E+02
 -62.537  0.1572E-83  0.9600E+02
 -62.487  0.1572E-83  0.9600E+02
 -62.437  0.1572E-83  0.9600E+02
 -62.387  0.1572E-83  0.9600E+02
 -62.337  0.1572E-83  0.9600E+02
 -62.287  0.1572E-83  0.9600E+02
 -62.237  0.1572E-83  0.9600E+02
 -62.187  0.1572E-83  0.9600E+02
 -62.137  0.1572E-83  0.9600E+02
 -62.087  0.1572E-83  0.9600E+02
 -62.037  0.1572E-83  0.9600E+02
 -61.987  0.1572E-83  0.9600E+02
 -61.937  0.1572E-83  0.9600E+02
 -61.887  0.1572E-83  0.9600E+02
 -61.837  0.1572E-83  0.9600E+02
 -61.787  0.1572E-83  0.9600E+02
 -61.737  0.1572E-83  0.9600E+02
 -61.687  0.1572E-83  0.9600E+02
 -61.637  0.1572E-83  0.9600E+02
 -61.587  0.1572E-83  0.9600E+02
 -61.537  0.1572E-83  0.9600E+02
 -61.487  0.1572E-83  0.9600E+02
 -61.437  0.1572E-83  0.9600E+02
 -61.387  0.1572E-83  0.9600E+02
 -61.337  0.1572E-83  0.9600E+02
 -61.287  0.1572E-83  0.9600E+02
 -61.237  0.1572E-83  0.9600E+02
 -61.187  0.1572E-83  0.9600E+02
 -61.137  0.1572E-83  0.9600E+02
 -61.087  0.1572E-83  0.9600E+02
 -61.037  0.1572E-83  0.9600E+02
 -60.987  0.1572E-83  0.9600E+02
 -60.937  0.1572E-83  0.9600E+02
 -60.887  0.1572E-83  0.9600E+02
 -60.837  0.1572E-83  0.9600E+02
 -60.787  0.1572E-83  0.9600E+02
 -60.737  0.1572E-83  0.9600E+02
 -60.687  0.1572E-83  0.9600E+02
 -60.637  0.1572E-83  0.9600E+02
 -60.587  0.1572E-83  0.9600E+02
 -60.537  0.1572E-83  0.9600E+02
 -60.487  0.1572E-83  0.9600E+02
 -60.437  0.1572E-83  0.9600E+02
 -60.387  0.1572E-83  0.9600E+02
 -60.337  0.1572E-83  0.9600E+02
 -60.287  0.1572E-83  0.9600E+02
 -60.237  0.1572E-83  0.9600E+02
 -60.187  0.1572E-83  0.9600E+02
 -60.137  0.1572E-83  0.9600E+02
 -60.087  0.1572E-83  0.9600E+02
 -60.037  0.1572E-83  0.9600E+02
 -59.987  0.1572E-83  0.9600E+02
 -59.937  0.1572E-83  0.9600E+02
 -59.887  0.1572E-83  0.9600E+02
 -59.837  0.1572E-83  0.9600E+02
 -59.787  0.1572E-83  0.9600E+02
 -59.737  0.1572E-83  0.9600E+02
 -59.687  0.1572E-83  0.9600E+02
 -59.637  0.1572E-83  0.9600E+02
 -59.587  0.1572E-83  0.9600E+02
 -59.537  0.1572E-83  0.9600E+02
 -59.487  0.1572E-83  0.9600E+02
 -59.437  0.1572E-83  0.9600E+02
 -59.387  0.1572E-83  0.9600E+02
 -59.337  0.1572E-83  0.9600E+02
 -59.287  0.1572E-83  0.9600E+02
 -59.237  0.1572E-83  0.9600E+02
 -59.187  0.1572E-83  0.9600E+02
 -59.137  0.1572E-83  0.9600E+02
 -59.087  0.1572E-83  0.9600E+02
 -59.037  0.1572E-83  0.9600E+02
 -58.987  0.1572E-83  0.9600E+02
 -58.937  0.1572E-83  0.9600E+02
 -58.887  0.1572E-83  0.9600E+02
 -58.837  0.1572E-83  0.9600E+02
 -58.787  0.1572E-83  0.9600E+02
 -58.737  0.1572E-83  0.9600E+02
 -58.687  0.1572E-83  0.9600E+02
 -58.637  0.1572E-83  0.9600E+02
 -58.587  0.1572E-83  0.9600E+02
 -58.537  0.1572E-83  0.9600E+02
 -58.487  0.1572E-83  0.9600E+02
 -58.437  0.1572E-83  0.9600E+02
 -58.387  0.1572E-83  0.9600E+02
 -58.337  0.1572E-83  0.9600E+02
 -58.287  0.1572E-83  0.9600E+02
 -58.237  0.1572E-83  0.9600E+02
 -58.187  0.1572E-83  0.9600E+02
 -58.137  0.1572E-83  0.9600E+02
 -58.087  0.1572E-83  0.9600E+02
 -58.037  0.1572E-83  0.9600E+02
 -57.987  0.1572E-83  0.9600E+02
 -57.937  0.1572E-83  0.9600E+02
 -57.887  0.1572E-83  0.9600E+02
 -57.837  0.1572E-83  0.9600E+02
 -57.787  0.1572E-83  0.9600E+02
 -57.737  0.1572E-83  0.9600E+02
 -57.687  0.1572E-83  0.9600E+02
 -57.637  0.1572E-83  0.9600E+02
 -57.587  0.1572E-83  0.9600E+02
 -57.537  0.1572E-83  0.9600E+02
 -57.487  0.1572E-83  0.9600E+02
 -57.437  0.1572E-83  0.9600E+02
 -57.387  0.1572E-83  0.9600E+02
 -57.337  0.1572E-83  0.9600E+02
 -57.287  0.1572E-83  0.9600E+02
 -57.237  0.1572E-83  0.9600E+02
 -57.187  0.1572E-83  0.9600E+02
 -57.137  0.1572E-83  0.9600E+02
 -57.087  0.1572E-83  0.9600E+02
 -57.037  0.1572E-83  0.9600E+02
 -56.987  0.1572E-83  0.9600E+02
 -56.937  0.1572E-83  0.9600E+02
 -56.887  0.1572E-83  0.9600E+02
 -56.837  0.1572E-83  0.9600E+02
 -56.787  0.1572E-83  0.9600E+02
 -56.737  0.1572E-83  0.9600E+02
 -56.687  0.1572E-83  0.9600E+02
 -56.637  0.1572E-83  0.9600E+02
 -56.587  0.1572E-83  0.9600E+02
 -56.537  0.1572E-83  0.9600E+02
 -56.487  0.1572E-83  0.9600E+02
 -56.437  0.1572E-83  0.9600E+02
 -56.387  0.1572E-83  0.9600E+02
 -56.337  0.1572E-83  0.9600E+02
 -56.287  0.1572E-83  0.9600E+02
 -56.237  0.1572E-83  0.9600E+02
 -56.187  0.1572E-83  0.9600E+02
 -56.137  0.1572E-83  0.9600E+02
 -56.087  0.1572E-83  0.9600E+02
 -56.037  0.1572E-83  0.9600E+02
 -55.987  0.1572E-83  0.9600E+02
 -55.937  0.1572E-83  0.9600E+02
 -55.887  0.1572E-83  0.9600E+02
 -55.837  0.1572E-83  0.9600E+02
 -55.787  0.1572E-83  0.9600E+02
 -55.737  0.1572E-83  0.9600E+02
 -55.687  0.1572E-83  0.9600E+02
 -55.637  0.1572E-83  0.9600E+02
 -55.587  0.1572E-83  0.9600E+02
 -55.537  0.1572E-83  0.9600E+02
 -55.487  0.1572E-83  0.9600E+02
 -55.437  0.1572E-83  0.9600E+02
 -55.387  0.1572E-83  0.9600E+02
 -55.337  0.1572E-83  0.9600E+02
 -55.287  0.1572E-83  0.9600E+02
 -55.237  0.1572E-83  0.9600E+02
 -55.187  0.1572E-83  0.9600E+02
 -55.137  0.1572E-83  0.9600E+02
 -55.087  0.1572E-83  0.9600E+02
 -55.037  0.1572E-83  0.9600E+02
 -54.987  0.1572E-83  0.9600E+02
 -54.937  0.1572E-83  0.9600E+02
 -54.887  0.1572E-83  0.9600E+02
 -54.837  0.1572E-83  0.9600E+02
 -54.787  0.1572E-83  0.9600E+02
 -54.737  0.1572E-83  0.9600E+02
 -54.687  0.1572E-83  0.9600E+02
 -54.637  0.1572E-83  0.9600E+02
 -54.587  0.1572E-83  0.9600E+02
 -54.537  0.1572E-83  0.9600E+02
 -54.487  0.1572E-83  0.9600E+02
 -54.437  0.1572E-83  0.9600E+02
 -54.387  0.1572E-83  0.9600E+02
 -54.337  0.1572E-83  0.9600E+02
 -54.287  0.1572E-83  0.9600E+02
 -54.237  0.1572E-83  0.9600E+02
 -54.187  0.1572E-83  0.9600E+02
 -54.137  0.1572E-83  0.9600E+02
 -54.087  0.1572E-83  0.9600E+02
 -54.037  0.1572E-83  0.9600E+02
 -53.987  0.1572E-83  0.9600E+02
 -53.937  0.1572E-83  0.9600E+02
 -53.887  0.1572E-83  0.9600E+02
 -53.837  0.1572E-83  0.9600E+02
 -53.787  0.1572E-83  0.9600E+02
 -53.737  0.1572E-83  0.9600E+02
 -53.687  0.1572E-83  0.9600E+02
 -53.637  0.1572E-83  0.9600E+02
 -53.587  0.1572E-83  0.9600E+02
 -53.537  0.1572E-83  0.9600E+02
 -53.487  0.1572E-83  0.9600E+02
 -53.437  0.1572E-83  0.9600E+02
 -53.387  0.1572E-83  0.9600E+02
 -53.337  0.1572E-83  0.9600E+02
 -53.287  0.1572E-83  0.9600E+02
 -53.237  0.1572E-83  0.9600E+02
 -53.187  0.1572E-83  0.9600E+02
 -53.137  0.1572E-83  0.9600E+02
 -53.087  0.1572E-83  0.9600E+02
 -53.037  0.1572E-83  0.9600E+02
 -52.987  0.1572E-83  0.9600E+02
 -52.937  0.1572E-83  0.9600E+02
 -52.887  0.1572E-83  0.9600E+02
 -52.837  0.1572E-83  0.9600E+02
 -52.787  0.1572E-83  0.9600E+02
 -52.737  0.1572E-83  0.9600E+02
 -52.687  0.1572E-83  0.9600E+02
 -52.637  0.1572E-83  0.9600E+02
 -52.587  0.1572E-83  0.9600E+02
 -52.537  0.1572E-83  0.9600E+02
 -52.487  0.1572E-83  0.9600E+02
 -52.437  0.1572E-83  0.9600E+02
 -52.387  0.1572E-83  0.9600E+02
 -52.337  0.1572E-83  0.9600E+02
 -52.287  0.1572E-83  0.9600E+02
 -52.237  0.1572E-83  0.9600E+02
 -52.187  0.1572E-83  0.9600E+02
 -52.137  0.1572E-83  0.9600E+02
 -52.087  0.1572E-83  0.9600E+02
 -52.037  0.1572E-83  0.9600E+02
 -51.987  0.1572E-83  0.9600E+02
 -51.937  0.1572E-83  0.9600E+02
 -51.887  0.1572E-83  0.9600E+02
 -51.837  0.1572E-83  0.9600E+02
 -51.787  0.1572E-83  0.9600E+02
 -51.737  0.1572E-83  0.9600E+02
 -51.687  0.1572E-83  0.9600E+02
 -51.637  0.1572E-83  0.9600E+02
 -51.587  0.1572E-83  0.9600E+02
 -51.537  0.1572E-83  0.9600E+02
 -51.487  0.1572E-83  0.9600E+02
 -51.437  0.1572E-83  0.9600E+02
 -51.387  0.1572E-83  0.9600E+02
 -51.337  0.1572E-83  0.9600E+02
 -51.287  0.1572E-83  0.9600E+02
 -51.237  0.1572E-83  0.9600E+02
 -51.187  0.1572E-83  0.9600E+02
 -51.137  0.1572E-83  0.9600E+02
 -51.087  0.1572E-83  0.9600E+02
 -51.037  0.1572E-83  0.9600E+02
 -50.987  0.1572E-83  0.9600E+02
 -50.937  0.1572E-83  0.9600E+02
 -50.887  0.1572E-83  0.9600E+02
 -50.837  0.1572E-83  0.9600E+02
 -50.787  0.1572E-83  0.9600E+02
 -50.737  0.1572E-83  0.9600E+02
 -50.687  0.1572E-83  0.9600E+02
 -50.637  0.1572E-83  0.9600E+02
 -50.587  0.1572E-83  0.9600E+02
 -50.537  0.1572E-83  0.9600E+02
 -50.487  0.1572E-83  0.9600E+02
 -50.437  0.1572E-83  0.9600E+02
 -50.387  0.1572E-83  0.9600E+02
 -50.337  0.1572E-83  0.9600E+02
 -50.287  0.1572E-83  0.9600E+02
 -50.237  0.1572E-83  0.9600E+02
 -50.187  0.1572E-83  0.9600E+02
 -50.137  0.1572E-83  0.9600E+02
 -50.087  0.1572E-83  0.9600E+02
 -50.037  0.1572E-83  0.9600E+02
 -49.987  0.1572E-83  0.9600E+02
 -49.937  0.1572E-83  0.9600E+02
 -49.887  0.1572E-83  0.9600E+02
 -49.837  0.1572E-83  0.9600E+02
 -49.787  0.1572E-83  0.9600E+02
 -49.737  0.1572E-83  0.9600E+02
 -49.687  0.1572E-83  0.9600E+02
 -49.637  0.1572E-83  0.9600E+02
 -49.587  0.1572E-83  0.9600E+02
 -49.537  0.1572E-83  0.9600E+02
 -49.487  0.1572E-83  0.9600E+02
 -49.437  0.1572E-83  0.9600E+02
 -49.387  0.1572E-83  0.9600E+02
 -49.337  0.1572E-83  0.9600E+02
 -49.287  0.1572E-83  0.9600E+02
 -49.237  0.1572E-83  0.9600E+02
 -49.187  0.1572E-83  0.9600E+02
 -49.137  0.1572E-83  0.9600E+02
 -49.087  0.1572E-83  0.9600E+02
 -49.037  0.1572E-83  0.9600E+02
 -48.987  0.1572E-83  0.9600E+02
 -48.937  0.1572E-83  0.9600E+02
 -48.887  0.1572E-83  0.9600E+02
 -48.837  0.1572E-83  0.9600E+02
 -48.787  0.1572E-83  0.9600E+02
 -48.737  0.1572E-83  0.9600E+02
 -48.687  0.1572E-83  0.9600E+02
 -48.637  0.1572E-83  0.9600E+02
 -48.587  0.1572E-83  0.9600E+02
 -48.537  0.1572E-83  0.9600E+02
 -48.487  0.1572E-83  0.9600E+02
 -48.437  0.1572E-83  0.9600E+02
 -48.387  0.1572E-83  0.9600E+02
 -48.337  0.1572E-83  0.9600E+02
 -48.287  0.1572E-83  0.9600E+02
 -48.237  0.1572E-83  0.9600E+02
 -48.187  0.1572E-83  0.9600E+02
 -48.137  0.1572E-83  0.9600E+02
 -48.087  0.1572E-83  0.9600E+02
 -48.037  0.1572E-83  0.9600E+02
 -47.987  0.1572E-83  0.9600E+02
 -47.937  0.1572E-83  0.9600E+02
 -47.887  0.1572E-83  0.9600E+02
 -47.837  0.1572E-83  0.9600E+02
 -47.787  0.1572E-83  0.9600E+02
 -47.737  0.1572E-83  0.9600E+02
 -47.687  0.1572E-83  0.9600E+02
 -47.637  0.1572E-83  0.9600E+02
 -47.587  0.1572E-83  0.9600E+02
 -47.537  0.1572E-83  0.9600E+02
 -47.487  0.1572E-83  0.9600E+02
 -47.437  0.1572E-83  0.9600E+02
 -47.387  0.1572E-83  0.9600E+02
 -47.337  0.1572E-83  0.9600E+02
 -47.287  0.1572E-83  0.9600E+02
 -47.237  0.1572E-83  0.9600E+02
 -47.187  0.1572E-83  0.9600E+02
 -47.137  0.1572E-83  0.9600E+02
 -47.087  0.1572E-83  0.9600E+02
 -47.037  0.1572E-83  0.9600E+02
 -46.987  0.1572E-83  0.9600E+02
 -46.937  0.1572E-83  0.9600E+02
 -46.887  0.1572E-83  0.9600E+02
 -46.837  0.1572E-83  0.9600E+02
 -46.787  0.1572E-83  0.9600E+02
 -46.737  0.1572E-83  0.9600E+02
 -46.687  0.1572E-83  0.9600E+02
 -46.637  0.1572E-83  0.9600E+02
 -46.587  0.1572E-83  0.9600E+02
 -46.537  0.1572E-83  0.9600E+02
 -46.487  0.1572E-83  0.9600E+02
 -46.437  0.1572E-83  0.9600E+02
 -46.387  0.1572E-83  0.9600E+02
 -46.337  0.1572E-83  0.9600E+02
 -46.287  0.1572E-83  0.9600E+02
 -46.237  0.1572E-83  0.9600E+02
 -46.187  0.1572E-83  0.9600E+02
 -46.137  0.1572E-83  0.9600E+02
 -46.087  0.1572E-83  0.9600E+02
 -46.037  0.1572E-83  0.9600E+02
 -45.987  0.1572E-83  0.9600E+02
 -45.937  0.1572E-83  0.9600E+02
 -45.887  0.1572E-83  0.9600E+02
 -45.837  0.1572E-83  0.9600E+02
 -45.787  0.1572E-83  0.9600E+02
 -45.737  0.1572E-83  0.9600E+02
 -45.687  0.1572E-83  0.9600E+02
 -45.637  0.1572E-83  0.9600E+02
 -45.587  0.1572E-83  0.9600E+02
 -45.537  0.1572E-83  0.9600E+02
 -45.487  0.1572E-83  0.9600E+02
 -45.437  0.1572E-83  0.9600E+02
 -45.387  0.1572E-83  0.9600E+02
 -45.337  0.1572E-83  0.9600E+02
 -45.287  0.1572E-83  0.9600E+02
 -45.237  0.1572E-83  0.9600E+02
 -45.187  0.1572E-83  0.9600E+02
 -45.137  0.1572E-83  0.9600E+02
 -45.087  0.1572E-83  0.9600E+02
 -45.037  0.1572E-83  0.9600E+02
 -44.987  0.1572E-83  0.9600E+02
 -44.937  0.1572E-83  0.9600E+02
 -44.887  0.1572E-83  0.9600E+02
 -44.837  0.1572E-83  0.9600E+02
 -44.787  0.1572E-83  0.9600E+02
 -44.737  0.1572E-83  0.9600E+02
 -44.687  0.1572E-83  0.9600E+02
 -44.637  0.1572E-83  0.9600E+02
 -44.587  0.1572E-83  0.9600E+02
 -44.537  0.1572E-83  0.9600E+02
 -44.487  0.1572E-83  0.9600E+02
 -44.437  0.1572E-83  0.9600E+02
 -44.387  0.1572E-83  0.9600E+02
 -44.337  0.1572E-83  0.9600E+02
 -44.287  0.1572E-83  0.9600E+02
 -44.237  0.1572E-83  0.9600E+02
 -44.187  0.1572E-83  0.9600E+02
 -44.137  0.1572E-83  0.9600E+02
 -44.087  0.1572E-83  0.9600E+02
 -44.037  0.1572E-83  0.9600E+02
 -43.987  0.1572E-83  0.9600E+02
 -43.937  0.1572E-83  0.9600E+02
 -43.887  0.1572E-83  0.9600E+02
 -43.837  0.1572E-83  0.9600E+02
 -43.787  0.1572E-83  0.9600E+02
 -43.737  0.1572E-83  0.9600E+02
 -43.687  0.1572E-83  0.9600E+02
 -43.637  0.1572E-83  0.9600E+02
 -43.587  0.1572E-83  0.9600E+02
 -43.537  0.1572E-83  0.9600E+02
 -43.487  0.1572E-83  0.9600E+02
 -43.437  0.1572E-83  0.9600E+02
 -43.387  0.1572E-83  0.9600E+02
 -43.337  0.1572E-83  0.9600E+02
 -43.287  0.1572E-83  0.9600E+02
 -43.237  0.1572E-83  0.9600E+02
 -43.187  0.1572E-83  0.9600E+02
 -43.137  0.1572E-83  0.9600E+02
 -43.087  0.1572E-83  0.9600E+02
 -43.037  0.1572E-83  0.9600E+02
 -42.987  0.1572E-83  0.9600E+02
 -42.937  0.1572E-83  0.9600E+02
 -42.887  0.1572E-83  0.9600E+02
 -42.837  0.1572E-83  0.9600E+02
 -42.787  0.1572E-83  0.9600E+02
 -42.737  0.1572E-83  0.9600E+02
 -42.687  0.1572E-83  0.9600E+02
 -42.637  0.1572E-83  0.9600E+02
 -42.587  0.1572E-83  0.9600E+02
 -42.537  0.1572E-83  0.9600E+02
 -42.487  0.1572E-83  0.9600E+02
 -42.437  0.1572E-83  0.9600E+02
 -42.387  0.1572E-83  0.9600E+02
 -42.337  0.1572E-83  0.9600E+02
 -42.287  0.1572E-83  0.9600E+02
 -42.237  0.1572E-83  0.9600E+02
 -42.187  0.1572E-83  0.9600E+02
 -42.137  0.1572E-83  0.9600E+02
 -42.087  0.1572E-83  0.9600E+02
 -42.037  0.1572E-83  0.9600E+02
 -41.987  0.1572E-83  0.9600E+02
 -41.937  0.1572E-83  0.9600E+02
 -41.887  0.1572E-83  0.9600E+02
 -41.837  0.1572E-83  0.9600E+02
 -41.787  0.1572E-83  0.9600E+02
 -41.737  0.1572E-83  0.9600E+02
 -41.687  0.1572E-83  0.9600E+02
 -41.637  0.1572E-83  0.9600E+02
 -41.587  0.1572E-83  0.9600E+02
 -41.537  0.1572E-83  0.9600E+02
 -41.487  0.1572E-83  0.9600E+02
 -41.437  0.1572E-83  0.9600E+02
 -41.387  0.1572E-83  0.9600E+02
 -41.337  0.1572E-83  0.9600E+02
 -41.287  0.1572E-83  0.9600E+02
 -41.237  0.1572E-83  0.9600E+02
 -41.187  0.1572E-83  0.9600E+02
 -41.137  0.1572E-83  0.9600E+02
 -41.087  0.1572E-83  0.9600E+02
 -41.037  0.1572E-83  0.9600E+02
 -40.987  0.1572E-83  0.9600E+02
 -40.937  0.1572E-83  0.9600E+02
 -40.887  0.1572E-83  0.9600E+02
 -40.837  0.1572E-83  0.9600E+02
 -40.787  0.1572E-83  0.9600E+02
 -40.737  0.1572E-83  0.9600E+02
 -40.687  0.1572E-83  0.9600E+02
 -40.637  0.1572E-83  0.9600E+02
 -40.587  0.1572E-83  0.9600E+02
 -40.537  0.1572E-83  0.9600E+02
 -40.487  0.1572E-83  0.9600E+02
 -40.437  0.1572E-83  0.9600E+02
 -40.387  0.1572E-83  0.9600E+02
 -40.337  0.1572E-83  0.9600E+02
 -40.287  0.1572E-83  0.9600E+02
 -40.237  0.1572E-83  0.9600E+02
 -40.187  0.1572E-83  0.9600E+02
 -40.137  0.1572E-83  0.9600E+02
 -40.087  0.1572E-83  0.9600E+02
 -40.037  0.1572E-83  0.9600E+02
 -39.987  0.1572E-83  0.9600E+02
 -39.937  0.1572E-83  0.9600E+02
 -39.887  0.1572E-83  0.9600E+02
 -39.837  0.1572E-83  0.9600E+02
 -39.787  0.1572E-83  0.9600E+02
 -39.737  0.1572E-83  0.9600E+02
 -39.687  0.1572E-83  0.9600E+02
 -39.637  0.1572E-83  0.9600E+02
 -39.587  0.1572E-83  0.9600E+02
 -39.537  0.1572E-83  0.9600E+02
 -39.487  0.1572E-83  0.9600E+02
 -39.437  0.1572E-83  0.9600E+02
 -39.387  0.1572E-83  0.9600E+02
 -39.337  0.1572E-83  0.9600E+02
 -39.287  0.1572E-83  0.9600E+02
 -39.237  0.1572E-83  0.9600E+02
 -39.187  0.1572E-83  0.9600E+02
 -39.137  0.1572E-83  0.9600E+02
 -39.087  0.1572E-83  0.9600E+02
 -39.037  0.1572E-83  0.9600E+02
 -38.987  0.1572E-83  0.9600E+02
 -38.937  0.1572E-83  0.9600E+02
 -38.887  0.1572E-83  0.9600E+02
 -38.837  0.1572E-83  0.9600E+02
 -38.787  0.1572E-83  0.9600E+02
 -38.737  0.1572E-83  0.9600E+02
 -38.687  0.1572E-83  0.9600E+02
 -38.637  0.1572E-83  0.9600E+02
 -38.587  0.1572E-83  0.9600E+02
 -38.537  0.1572E-83  0.9600E+02
 -38.487  0.1572E-83  0.9600E+02
 -38.437  0.1572E-83  0.9600E+02
 -38.387  0.1572E-83  0.9600E+02
 -38.337  0.1572E-83  0.9600E+02
 -38.287  0.1572E-83  0.9600E+02
 -38.237  0.1572E-83  0.9600E+02
 -38.187  0.1572E-83  0.9600E+02
 -38.137  0.1572E-83  0.9600E+02
 -38.087  0.1572E-83  0.9600E+02
 -38.037  0.1572E-83  0.9600E+02
 -37.987  0.1572E-83  0.9600E+02
 -37.937  0.1572E-83  0.9600E+02
 -37.887  0.1572E-83  0.9600E+02
 -37.837  0.1572E-83  0.9600E+02
 -37.787  0.1572E-83  0.9600E+02
 -37.737  0.1572E-83  0.9600E+02
 -37.687  0.1572E-83  0.9600E+02
 -37.637  0.1572E-83  0.9600E+02
 -37.587  0.1572E-83  0.9600E+02
 -37.537  0.1572E-83  0.9600E+02
 -37.487  0.1572E-83  0.9600E+02
 -37.437  0.1572E-83  0.9600E+02
 -37.387  0.1572E-83  0.9600E+02
 -37.337  0.1572E-83  0.9600E+02
 -37.287  0.1572E-83  0.9600E+02
 -37.237  0.1572E-83  0.9600E+02
 -37.187  0.1572E-83  0.9600E+02
 -37.137  0.1572E-83  0.9600E+02
 -37.087  0.1572E-83  0.9600E+02
 -37.037  0.1572E-83  0.9600E+02
 -36.987  0.1572E-83  0.9600E+02
 -36.937  0.1572E-83  0.9600E+02
 -36.887  0.1572E-83  0.9600E+02
 -36.837  0.1572E-83  0.9600E+02
 -36.787  0.1572E-83  0.9600E+02
 -36.737  0.1572E-83  0.9600E+02
 -36.687  0.1572E-83  0.9600E+02
 -36.637  0.1572E-83  0.9600E+02
 -36.587  0.1572E-83  0.9600E+02
 -36.537  0.1572E-83  0.9600E+02
 -36.487  0.1572E-83  0.9600E+02
 -36.437  0.1572E-83  0.9600E+02
 -36.387  0.1572E-83  0.9600E+02
 -36.337  0.1572E-83  0.9600E+02
 -36.287  0.1572E-83  0.9600E+02
 -36.237  0.1572E-83  0.9600E+02
 -36.187  0.1572E-83  0.9600E+02
 -36.137  0.1572E-83  0.9600E+02
 -36.087  0.1572E-83  0.9600E+02
 -36.037  0.1572E-83  0.9600E+02
 -35.987  0.1572E-83  0.9600E+02
 -35.937  0.1572E-83  0.9600E+02
 -35.887  0.1572E-83  0.9600E+02
 -35.837  0.1572E-83  0.9600E+02
 -35.787  0.1572E-83  0.9600E+02
 -35.737  0.1572E-83  0.9600E+02
 -35.687  0.1572E-83  0.9600E+02
 -35.637  0.1572E-83  0.9600E+02
 -35.587  0.1572E-83  0.9600E+02
 -35.537  0.1572E-83  0.9600E+02
 -35.487  0.1572E-83  0.9600E+02
 -35.437  0.1572E-83  0.9600E+02
 -35.387  0.1572E-83  0.9600E+02
 -35.337  0.1572E-83  0.9600E+02
 -35.287  0.1572E-83  0.9600E+02
 -35.237  0.1572E-83  0.9600E+02
 -35.187  0.1572E-83  0.9600E+02
 -35.137  0.1572E-83  0.9600E+02
 -35.087  0.1572E-83  0.9600E+02
 -35.037  0.1572E-83  0.9600E+02
 -34.987  0.1572E-83  0.9600E+02
 -34.937  0.1572E-83  0.9600E+02
 -34.887  0.1572E-83  0.9600E+02
 -34.837  0.1572E-83  0.9600E+02
 -34.787  0.1572E-83  0.9600E+02
 -34.737  0.1572E-83  0.9600E+02
 -34.687  0.1572E-83  0.9600E+02
 -34.637  0.1572E-83  0.9600E+02
 -34.587  0.1572E-83  0.9600E+02
 -34.537  0.1572E-83  0.9600E+02
 -34.487  0.1572E-83  0.9600E+02
 -34.437  0.1572E-83  0.9600E+02
 -34.387  0.1572E-83  0.9600E+02
 -34.337  0.1572E-83  0.9600E+02
 -34.287  0.1572E-83  0.9600E+02
 -34.237  0.1572E-83  0.9600E+02
 -34.187  0.1572E-83  0.9600E+02
 -34.137  0.1572E-83  0.9600E+02
 -34.087  0.1572E-83  0.9600E+02
 -34.037  0.1572E-83  0.9600E+02
 -33.987  0.1572E-83  0.9600E+02
 -33.937  0.1572E-83  0.9600E+02
 -33.887  0.1572E-83  0.9600E+02
 -33.837  0.1572E-83  0.9600E+02
 -33.787  0.1572E-83  0.9600E+02
 -33.737  0.1572E-83  0.9600E+02
 -33.687  0.1572E-83  0.9600E+02
 -33.637  0.1572E-83  0.9600E+02
 -33.587  0.1572E-83  0.9600E+02
 -33.537  0.1572E-83  0.9600E+02
 -33.487  0.1572E-83  0.9600E+02
 -33.437  0.1572E-83  0.9600E+02
 -33.387  0.1572E-83  0.9600E+02
 -33.337  0.1572E-83  0.9600E+02
 -33.287  0.1572E-83  0.9600E+02
 -33.237  0.1572E-83  0.9600E+02
 -33.187  0.1572E-83  0.9600E+02
 -33.137  0.1572E-83  0.9600E+02
 -33.087  0.1572E-83  0.9600E+02
 -33.037  0.1572E-83  0.9600E+02
 -32.987  0.1572E-83  0.9600E+02
 -32.937  0.1572E-83  0.9600E+02
 -32.887  0.1572E-83  0.9600E+02
 -32.837  0.1572E-83  0.9600E+02
 -32.787  0.1572E-83  0.9600E+02
 -32.737  0.1572E-83  0.9600E+02
 -32.687  0.1572E-83  0.9600E+02
 -32.637  0.1572E-83  0.9600E+02
 -32.587  0.1572E-83  0.9600E+02
 -32.537  0.1572E-83  0.9600E+02
 -32.487  0.1572E-83  0.9600E+02
 -32.437  0.1572E-83  0.9600E+02
 -32.387  0.1572E-83  0.9600E+02
 -32.337  0.1572E-83  0.9600E+02
 -32.287  0.1572E-83  0.9600E+02
 -32.237  0.1572E-83  0.9600E+02
 -32.187  0.1572E-83  0.9600E+02
 -32.137  0.1572E-83  0.9600E+02
 -32.087  0.1572E-83  0.9600E+02
 -32.037  0.1572E-83  0.9600E+02
 -31.987  0.1572E-83  0.9600E+02
 -31.937  0.1572E-83  0.9600E+02
 -31.887  0.1572E-83  0.9600E+02
 -31.837  0.1572E-83  0.9600E+02
 -31.787  0.1572E-83  0.9600E+02
 -31.737  0.1572E-83  0.9600E+02
 -31.687  0.1572E-83  0.9600E+02
 -31.637  0.1572E-83  0.9600E+02
 -31.587  0.1572E-83  0.9600E+02
 -31.537  0.1572E-83  0.9600E+02
 -31.487  0.1572E-83  0.9600E+02
 -31.437  0.1572E-83  0.9600E+02
 -31.387  0.1572E-83  0.9600E+02
 -31.337  0.1572E-83  0.9600E+02
 -31.287  0.1572E-83  0.9600E+02
 -31.237  0.1572E-83  0.9600E+02
 -31.187  0.1572E-83  0.9600E+02
 -31.137  0.1572E-83  0.9600E+02
 -31.087  0.1572E-83  0.9600E+02
 -31.037  0.1572E-83  0.9600E+02
 -30.987  0.1572E-83  0.9600E+02
 -30.937  0.1572E-83  0.9600E+02
 -30.887  0.1572E-83  0.9600E+02
 -30.837  0.1572E-83  0.9600E+02
 -30.787  0.1572E-83  0.9600E+02
 -30.737  0.1572E-83  0.9600E+02
 -30.687  0.1572E-83  0.9600E+02
 -30.637  0.1572E-83  0.9600E+02
 -30.587  0.1572E-83  0.9600E+02
 -30.537  0.1572E-83  0.9600E+02
 -30.487  0.1572E-83  0.9600E+02
 -30.437  0.1572E-83  0.9600E+02
 -30.387  0.1572E-83  0.9600E+02
 -30.337  0.1572E-83  0.9600E+02
 -30.287  0.1572E-83  0.9600E+02
 -30.237  0.1572E-83  0.9600E+02
 -30.187  0.1572E-83  0.9600E+02
 -30.137  0.1572E-83  0.9600E+02
 -30.087  0.1572E-83  0.9600E+02
 -30.037  0.1572E-83  0.9600E+02
 -29.987  0.1572E-83  0.9600E+02
 -29.937  0.1572E-83  0.9600E+02
 -29.887  0.1572E-83  0.9600E+02
 -29.837  0.1572E-83  0.9600E+02
 -29.787  0.1572E-83  0.9600E+02
 -29.737  0.1572E-83  0.9600E+02
 -29.687  0.1572E-83  0.9600E+02
 -29.637  0.1572E-83  0.9600E+02
 -29.587  0.1572E-83  0.9600E+02
 -29.537  0.1572E-83  0.9600E+02
 -29.487  0.1572E-83  0.9600E+02
 -29.437  0.1572E-83  0.9600E+02
 -29.387  0.1572E-83  0.9600E+02
 -29.337  0.1572E-83  0.9600E+02
 -29.287  0.1572E-83  0.9600E+02
 -29.237  0.1572E-83  0.9600E+02
 -29.187  0.1572E-83  0.9600E+02
 -29.137  0.1572E-83  0.9600E+02
 -29.087  0.1572E-83  0.9600E+02
 -29.037  0.1572E-83  0.9600E+02
 -28.987  0.1572E-83  0.9600E+02
 -28.937  0.1572E-83  0.9600E+02
 -28.887  0.1572E-83  0.9600E+02
 -28.837  0.1572E-83  0.9600E+02
 -28.787  0.1572E-83  0.9600E+02
 -28.737  0.1572E-83  0.9600E+02
 -28.687  0.1572E-83  0.9600E+02
 -28.637  0.1572E-83  0.9600E+02
 -28.587  0.1572E-83  0.9600E+02
 -28.537  0.1572E-83  0.9600E+02
 -28.487  0.1572E-83  0.9600E+02
 -28.437  0.1572E-83  0.9600E+02
 -28.387  0.1572E-83  0.9600E+02
 -28.337  0.1572E-83  0.9600E+02
 -28.287  0.1572E-83  0.9600E+02
 -28.237  0.1572E-83  0.9600E+02
 -28.187  0.1572E-83  0.9600E+02
 -28.137  0.1572E-83  0.9600E+02
 -28.087  0.1572E-83  0.9600E+02
 -28.037  0.1572E-83  0.9600E+02
 -27.987  0.1572E-83  0.9600E+02
 -27.937  0.1572E-83  0.9600E+02
 -27.887  0.1572E-83  0.9600E+02
 -27.837  0.1572E-83  0.9600E+02
 -27.787  0.1572E-83  0.9600E+02
 -27.737  0.1572E-83  0.9600E+02
 -27.687  0.1572E-83  0.9600E+02
 -27.637  0.1572E-83  0.9600E+02
 -27.587  0.1572E-83  0.9600E+02
 -27.537  0.1572E-83  0.9600E+02
 -27.487  0.1572E-83  0.9600E+02
 -27.437  0.1572E-83  0.9600E+02
 -27.387  0.1572E-83  0.9600E+02
 -27.337  0.1572E-83  0.9600E+02
 -27.287  0.1572E-83  0.9600E+02
 -27.237  0.1572E-83  0.9600E+02
 -27.187  0.1572E-83  0.9600E+02
 -27.137  0.1572E-83  0.9600E+02
 -27.087  0.1572E-83  0.9600E+02
 -27.037  0.1572E-83  0.9600E+02
 -26.987  0.1572E-83  0.9600E+02
 -26.937  0.1572E-83  0.9600E+02
 -26.887  0.1572E-83  0.9600E+02
 -26.837  0.1572E-83  0.9600E+02
 -26.787  0.1572E-83  0.9600E+02
 -26.737  0.1572E-83  0.9600E+02
 -26.687  0.1572E-83  0.9600E+02
 -26.637  0.1572E-83  0.9600E+02
 -26.587  0.1572E-83  0.9600E+02
 -26.537  0.1572E-83  0.9600E+02
 -26.487  0.1572E-83  0.9600E+02
 -26.437  0.1572E-83  0.9600E+02
 -26.387  0.1572E-83  0.9600E+02
 -26.337  0.1572E-83  0.9600E+02
 -26.287  0.1572E-83  0.9600E+02
 -26.237  0.1572E-83  0.9600E+02
 -26.187  0.1572E-83  0.9600E+02
 -26.137  0.1572E-83  0.9600E+02
 -26.087  0.1572E-83  0.9600E+02
 -26.037  0.1572E-83  0.9600E+02
 -25.987  0.1572E-83  0.9600E+02
 -25.937  0.1572E-83  0.9600E+02
 -25.887  0.1572E-83  0.9600E+02
 -25.837  0.1572E-83  0.9600E+02
 -25.787  0.1572E-83  0.9600E+02
 -25.737  0.1572E-83  0.9600E+02
 -25.687  0.1572E-83  0.9600E+02
 -25.637  0.1572E-83  0.9600E+02
 -25.587  0.1572E-83  0.9600E+02
 -25.537  0.1572E-83  0.9600E+02
 -25.487  0.1572E-83  0.9600E+02
 -25.437  0.1572E-83  0.9600E+02
 -25.387  0.1572E-83  0.9600E+02
 -25.337  0.1572E-83  0.9600E+02
 -25.287  0.1572E-83  0.9600E+02
 -25.237  0.1572E-83  0.9600E+02
 -25.187  0.1572E-83  0.9600E+02
 -25.137  0.1572E-83  0.9600E+02
 -25.087  0.1572E-83  0.9600E+02
 -25.037  0.1572E-83  0.9600E+02
 -24.987  0.1572E-83  0.9600E+02
 -24.937  0.1572E-83  0.9600E+02
 -24.887  0.1572E-83  0.9600E+02
 -24.837  0.1572E-83  0.9600E+02
 -24.787  0.1572E-83  0.9600E+02
 -24.737  0.1572E-83  0.9600E+02
 -24.687  0.1572E-83  0.9600E+02
 -24.637  0.1572E-83  0.9600E+02
 -24.587  0.1572E-83  0.9600E+02
 -24.537  0.1572E-83  0.9600E+02
 -24.487  0.1572E-83  0.9600E+02
 -24.437  0.1572E-83  0.9600E+02
 -24.387  0.1572E-83  0.9600E+02
 -24.337  0.1572E-83  0.9600E+02
 -24.287  0.1572E-83  0.9600E+02
 -24.237  0.1572E-83  0.9600E+02
 -24.187  0.1572E-83  0.9600E+02
 -24.137  0.1572E-83  0.9600E+02
 -24.087  0.1572E-83  0.9600E+02
 -24.037  0.1572E-83  0.9600E+02
 -23.987  0.1572E-83  0.9600E+02
 -23.937  0.1572E-83  0.9600E+02
 -23.887  0.1572E-83  0.9600E+02
 -23.837  0.1572E-83  0.9600E+02
 -23.787  0.1572E-83  0.9600E+02
 -23.737  0.1572E-83  0.9600E+02
 -23.687  0.1572E-83  0.9600E+02
 -23.637  0.1572E-83  0.9600E+02
 -23.587  0.1572E-83  0.9600E+02
 -23.537  0.1572E-83  0.9600E+02
 -23.487  0.1572E-83  0.9600E+02
 -23.437  0.1572E-83  0.9600E+02
 -23.387  0.1572E-83  0.9600E+02
 -23.337  0.1572E-83  0.9600E+02
 -23.287  0.1572E-83  0.9600E+02
 -23.237  0.1572E-83  0.9600E+02
 -23.187  0.1572E-83  0.9600E+02
 -23.137  0.1572E-83  0.9600E+02
 -23.087  0.1572E-83  0.9600E+02
 -23.037  0.1572E-83  0.9600E+02
 -22.987  0.1572E-83  0.9600E+02
 -22.937  0.1572E-83  0.9600E+02
 -22.887  0.1572E-83  0.9600E+02
 -22.837  0.1572E-83  0.9600E+02
 -22.787  0.1572E-83  0.9600E+02
 -22.737  0.1572E-83  0.9600E+02
 -22.687  0.1572E-83  0.9600E+02
 -22.637  0.1572E-83  0.9600E+02
 -22.587  0.1572E-83  0.9600E+02
 -22.537  0.1572E-83  0.9600E+02
 -22.487  0.1572E-83  0.9600E+02
 -22.437  0.1572E-83  0.9600E+02
 -22.387  0.1572E-83  0.9600E+02
 -22.337  0.1572E-83  0.9600E+02
 -22.287  0.1572E-83  0.9600E+02
 -22.237  0.1572E-83  0.9600E+02
 -22.187  0.1572E-83  0.9600E+02
 -22.137  0.1572E-83  0.9600E+02
 -22.087  0.1572E-83  0.9600E+02
 -22.037  0.1572E-83  0.9600E+02
 -21.987  0.1572E-83  0.9600E+02
 -21.937  0.1572E-83  0.9600E+02
 -21.887  0.1572E-83  0.9600E+02
 -21.837  0.1572E-83  0.9600E+02
 -21.787  0.1572E-83  0.9600E+02
 -21.737  0.1572E-83  0.9600E+02
 -21.687  0.1572E-83  0.9600E+02
 -21.637  0.1572E-83  0.9600E+02
 -21.587  0.1572E-83  0.9600E+02
 -21.537  0.1572E-83  0.9600E+02
 -21.487  0.1572E-83  0.9600E+02
 -21.437  0.1572E-83  0.9600E+02
 -21.387  0.1572E-83  0.9600E+02
 -21.337  0.1572E-83  0.9600E+02
 -21.287  0.1572E-83  0.9600E+02
 -21.237  0.1572E-83  0.9600E+02
 -21.187  0.1572E-83  0.9600E+02
 -21.137  0.1572E-83  0.9600E+02
 -21.087  0.1572E-83  0.9600E+02
 -21.037  0.1572E-83  0.9600E+02
 -20.987  0.1572E-83  0.9600E+02
 -20.937  0.1572E-83  0.9600E+02
 -20.887  0.1572E-83  0.9600E+02
 -20.837  0.1572E-83  0.9600E+02
 -20.787  0.1572E-83  0.9600E+02
 -20.737  0.1572E-83  0.9600E+02
 -20.687  0.1572E-83  0.9600E+02
 -20.637  0.1572E-83  0.9600E+02
 -20.587  0.1572E-83  0.9600E+02
 -20.537  0.1572E-83  0.9600E+02
 -20.487  0.1572E-83  0.9600E+02
 -20.437  0.1572E-83  0.9600E+02
 -20.387  0.1572E-83  0.9600E+02
 -20.337  0.1572E-83  0.9600E+02
 -20.287  0.1572E-83  0.9600E+02
 -20.237  0.1572E-83  0.9600E+02
 -20.187  0.1572E-83  0.9600E+02
 -20.137  0.1572E-83  0.9600E+02
 -20.087  0.1572E-83  0.9600E+02
 -20.037  0.1572E-83  0.9600E+02
 -19.987  0.1572E-83  0.9600E+02
 -19.937  0.1572E-83  0.9600E+02
 -19.887  0.1572E-83  0.9600E+02
 -19.837  0.1572E-83  0.9600E+02
 -19.787  0.1572E-83  0.9600E+02
 -19.737  0.1572E-83  0.9600E+02
 -19.687  0.1572E-83  0.9600E+02
 -19.637  0.1572E-83  0.9600E+02
 -19.587  0.1572E-83  0.9600E+02
 -19.537  0.1572E-83  0.9600E+02
 -19.487  0.1572E-83  0.9600E+02
 -19.437  0.1572E-83  0.9600E+02
 -19.387  0.1572E-83  0.9600E+02
 -19.337  0.1572E-83  0.9600E+02
 -19.287  0.1572E-83  0.9600E+02
 -19.237  0.1572E-83  0.9600E+02
 -19.187  0.1572E-83  0.9600E+02
 -19.137  0.1572E-83  0.9600E+02
 -19.087  0.1572E-83  0.9600E+02
 -19.037  0.1572E-83  0.9600E+02
 -18.987  0.1572E-83  0.9600E+02
 -18.937  0.1572E-83  0.9600E+02
 -18.887  0.1572E-83  0.9600E+02
 -18.837  0.1572E-83  0.9600E+02
 -18.787  0.1572E-83  0.9600E+02
 -18.737  0.1572E-83  0.9600E+02
 -18.687  0.1572E-83  0.9600E+02
 -18.637  0.1572E-83  0.9600E+02
 -18.587  0.1572E-83  0.9600E+02
 -18.537  0.1572E-83  0.9600E+02
 -18.487  0.1572E-83  0.9600E+02
 -18.437  0.1572E-83  0.9600E+02
 -18.387  0.1572E-83  0.9600E+02
 -18.337  0.1572E-83  0.9600E+02
 -18.287  0.1572E-83  0.9600E+02
 -18.237  0.1572E-83  0.9600E+02
 -18.187  0.1572E-83  0.9600E+02
 -18.137  0.1572E-83  0.9600E+02
 -18.087  0.1572E-83  0.9600E+02
 -18.037  0.1572E-83  0.9600E+02
 -17.987  0.1572E-83  0.9600E+02
 -17.937  0.1572E-83  0.9600E+02
 -17.887  0.1572E-83  0.9600E+02
 -17.837  0.1572E-83  0.9600E+02
 -17.787  0.1572E-83  0.9600E+02
 -17.737  0.1572E-83  0.9600E+02
 -17.687  0.1572E-83  0.9600E+02
 -17.637  0.1572E-83  0.9600E+02
 -17.587  0.1572E-83  0.9600E+02
 -17.537  0.1572E-83  0.9600E+02
 -17.487  0.1572E-83  0.9600E+02
 -17.437  0.1572E-83  0.9600E+02
 -17.387  0.1572E-83  0.9600E+02
 -17.337  0.1572E-83  0.9600E+02
 -17.287  0.1572E-83  0.9600E+02
 -17.237  0.1572E-83  0.9600E+02
 -17.187  0.1572E-83  0.9600E+02
 -17.137  0.1572E-83  0.9600E+02
 -17.087  0.1572E-83  0.9600E+02
 -17.037  0.1572E-83  0.9600E+02
 -16.987  0.1572E-83  0.9600E+02
 -16.937  0.1572E-83  0.9600E+02
 -16.887  0.1572E-83  0.9600E+02
 -16.837  0.1572E-83  0.9600E+02
 -16.787  0.1572E-83  0.9600E+02
 -16.737  0.1572E-83  0.9600E+02
 -16.687  0.1572E-83  0.9600E+02
 -16.637  0.1572E-83  0.9600E+02
 -16.587  0.1572E-83  0.9600E+02
 -16.537  0.1572E-83  0.9600E+02
 -16.487  0.1572E-83  0.9600E+02
 -16.437  0.1572E-83  0.9600E+02
 -16.387  0.1572E-83  0.9600E+02
 -16.337  0.1572E-83  0.9600E+02
 -16.287  0.1572E-83  0.9600E+02
 -16.237  0.1572E-83  0.9600E+02
 -16.187  0.1572E-83  0.9600E+02
 -16.137  0.1572E-83  0.9600E+02
 -16.087  0.1572E-83  0.9600E+02
 -16.037  0.1572E-83  0.9600E+02
 -15.987  0.1572E-83  0.9600E+02
 -15.937  0.1572E-83  0.9600E+02
 -15.887  0.1572E-83  0.9600E+02
 -15.837  0.1572E-83  0.9600E+02
 -15.787  0.1572E-83  0.9600E+02
 -15.737  0.1572E-83  0.9600E+02
 -15.687  0.1572E-83  0.9600E+02
 -15.637  0.1572E-83  0.9600E+02
 -15.587  0.1572E-83  0.9600E+02
 -15.537  0.1572E-83  0.9600E+02
 -15.487  0.1572E-83  0.9600E+02
 -15.437  0.1572E-83  0.9600E+02
 -15.387  0.1572E-83  0.9600E+02
 -15.337  0.1572E-83  0.9600E+02
 -15.287  0.1572E-83  0.9600E+02
 -15.237  0.1572E-83  0.9600E+02
 -15.187  0.1572E-83  0.9600E+02
 -15.137  0.1572E-83  0.9600E+02
 -15.087  0.1572E-83  0.9600E+02
 -15.037  0.1572E-83  0.9600E+02
 -14.987  0.1572E-83  0.9600E+02
 -14.937  0.1666E-83  0.9600E+02
 -14.887  0.2433E-80  0.9600E+02
 -14.837  0.4748E-76  0.9600E+02
 -14.787  0.7078E-72  0.9600E+02
 -14.737  0.8052E-68  0.9600E+02
 -14.687  0.6993E-64  0.9600E+02
 -14.637  0.4635E-60  0.9600E+02
 -14.587  0.2345E-56  0.9600E+02
 -14.537  0.9058E-53  0.9600E+02
 -14.487  0.2670E-49  0.9600E+02
 -14.437  0.6009E-46  0.9600E+02
 -14.387  0.1032E-42  0.9600E+02
 -14.337  0.1353E-39  0.9600E+02
 -14.287  0.1354E-36  0.9600E+02
 -14.237  0.1034E-33  0.9600E+02
 -14.187  0.6029E-31  0.9600E+02
 -14.137  0.2683E-28  0.9600E+02
 -14.087  0.9115E-26  0.9600E+02
 -14.037  0.2363E-23  0.9600E+02
 -13.987  0.4677E-21  0.9600E+02
 -13.937  0.7066E-19  0.9600E+02
 -13.887  0.8148E-17  0.9600E+02
 -13.837  0.7172E-15  0.9600E+02
 -13.787  0.4818E-13  0.9600E+02
 -13.737  0.2471E-11  0.9600E+02
 -13.687  0.9671E-10  0.9600E+02
 -13.637  0.2890E-08  0.9600E+02
 -13.587  0.6590E-07  0.9600E+02
 -13.537  0.1147E-05  0.9600E+02
 -13.487  0.1524E-04  0.9600E+02
 -13.437  0.1546E-03  0.9600E+02
 -13.387  0.1197E-02  0.9600E+02
 -13.337  0.7072E-02  0.9600E+02
 -13.287  0.3190E-01  0.9600E+02
 -13.237  0.1098E+00  0.9601E+02
 -13.187  0.2888E+00  0.9602E+02
 -13.137  0.5805E+00  0.9605E+02
 -13.087  0.8953E+00  0.9610E+02
 -13.037  0.1075E+01  0.9615E+02
 -12.987  0.1053E+01  0.9620E+02
 -12.937  0.9546E+00  0.9625E+02
 -12.887  0.9541E+00  0.9630E+02
 -12.837  0.1052E+01  0.9635E+02
 -12.787  0.1075E+01  0.9640E+02
 -12.737  0.8972E+00  0.9645E+02
 -12.687  0.5838E+00  0.9648E+02
 -12.637  0.2985E+00  0.9649E+02
 -12.587  0.1509E+00  0.9650E+02
 -12.537  0.1837E+00  0.9651E+02
 -12.487  0.4418E+00  0.9653E+02
 -12.437  0.9540E+00  0.9658E+02
 -12.387  0.1598E+01  0.9666E+02
 -12.337  0.2065E+01  0.9676E+02
 -12.287  0.2097E+01  0.9687E+02
 -12.237  0.1779E+01  0.9696E+02
 -12.187  0.1441E+01  0.9703E+02
 -12.137  0.1270E+01  0.9709E+02
 -12.087  0.1156E+01  0.9715E+02
 -12.037  0.9332E+00  0.9720E+02
 -11.987  0.6090E+00  0.9723E+02
 -11.937  0.3236E+00  0.9724E+02
 -11.887  0.1975E+00  0.9725E+02
 -11.837  0.2968E+00  0.9727E+02
 -11.787  0.6666E+00  0.9730E+02
 -11.737  0.1266E+01  0.9736E+02
 -11.687  0.1852E+01  0.9746E+02
 -11.637  0.2071E+01  0.9756E+02
 -11.587  0.1768E+01  0.9765E+02
 -11.537  0.1152E+01  0.9771E+02
 -11.487  0.5731E+00  0.9774E+02
 -11.437  0.2191E+00  0.9775E+02
 -11.387  0.7256E-01  0.9775E+02
 -11.337  0.5787E-01  0.9775E+02
 -11.287  0.1601E+00  0.9776E+02
 -11.237  0.4464E+00  0.9778E+02
 -11.187  0.1002E+01  0.9783E+02
 -11.137  0.1809E+01  0.9792E+02
 -11.087  0.2662E+01  0.9806E+02
 -11.037  0.3289E+01  0.9822E+02
 -10.987  0.3599E+01  0.9840E+02
 -10.937  0.3736E+01  0.9859E+02
 -10.887  0.3773E+01  0.9878E+02
 -10.837  0.3517E+01  0.9895E+02
 -10.787  0.2803E+01  0.9909E+02
 -10.737  0.1838E+01  0.9918E+02
 -10.687  0.1084E+01  0.9924E+02
 -10.637  0.8873E+00  0.9928E+02
 -10.587  0.1311E+01  0.9935E+02
 -10.537  0.2138E+01  0.9946E+02
 -10.487  0.2933E+01  0.9960E+02
 -10.437  0.3293E+01  0.9977E+02
 -10.387  0.3188E+01  0.9993E+02
 -10.337  0.2924E+01  0.1001E+03
 -10.287  0.2720E+01  0.1002E+03
 -10.237  0.2514E+01  0.1003E+03
 -10.187  0.2268E+01  0.1004E+03
 -10.137  0.2171E+01  0.1006E+03
 -10.087  0.2378E+01  0.1007E+03
 -10.037  0.2755E+01  0.1008E+03
  -9.987  0.3037E+01  0.1010E+03
  -9.937  0.3075E+01  0.1011E+03
  -9.887  0.2821E+01  0.1013E+03
  -9.837  0.2298E+01  0.1014E+03
  -9.787  0.1734E+01  0.1015E+03
  -9.737  0.1558E+01  0.1015E+03
  -9.687  0.2176E+01  0.1016E+03
  -9.637  0.3734E+01  0.1018E+03
  -9.587  0.6018E+01  0.1021E+03
  -9.537  0.8436E+01  0.1026E+03
  -9.487  0.1019E+02  0.1031E+03
  -9.437  0.1070E+02  0.1036E+03
  -9.387  0.9937E+01  0.1041E+03
  -9.337  0.8550E+01  0.1045E+03
  -9.287  0.7438E+01  0.1049E+03
  -9.237  0.7298E+01  0.1053E+03
  -9.187  0.8447E+01  0.1057E+03
  -9.137  0.1075E+02  0.1062E+03
  -9.087  0.1345E+02  0.1069E+03
  -9.037  0.1529E+02  0.1077E+03
  -8.987  0.1549E+02  0.1084E+03
  -8.937  0.1449E+02  0.1092E+03
  -8.887  0.1348E+02  0.1098E+03
  -8.837  0.1335E+02  0.1105E+03
  -8.787  0.1422E+02  0.1112E+03
  -8.737  0.1592E+02  0.1120E+03
  -8.687  0.1828E+02  0.1129E+03
  -8.637  0.2102E+02  0.1140E+03
  -8.587  0.2355E+02  0.1151E+03
  -8.537  0.2510E+02  0.1164E+03
  -8.487  0.2521E+02  0.1177E+03
  -8.437  0.2401E+02  0.1189E+03
  -8.387  0.2232E+02  0.1200E+03
  -8.337  0.2120E+02  0.1210E+03
  -8.287  0.2114E+02  0.1221E+03
  -8.237  0.2146E+02  0.1232E+03
  -8.187  0.2120E+02  0.1242E+03
  -8.137  0.2054E+02  0.1253E+03
  -8.087  0.2107E+02  0.1263E+03
  -8.037  0.2425E+02  0.1275E+03
  -7.987  0.2934E+02  0.1290E+03
  -7.937  0.3323E+02  0.1307E+03
  -7.887  0.3341E+02  0.1323E+03
  -7.837  0.3063E+02  0.1339E+03
  -7.787  0.2806E+02  0.1353E+03
  -7.737  0.2831E+02  0.1367E+03
  -7.687  0.3178E+02  0.1383E+03
  -7.637  0.3689E+02  0.1401E+03
  -7.587  0.4118E+02  0.1422E+03
  -7.537  0.4332E+02  0.1443E+03
  -7.487  0.4448E+02  0.1466E+03
  -7.437  0.4707E+02  0.1489E+03
  -7.387  0.5188E+02  0.1515E+03
  -7.337  0.5718E+02  0.1544E+03
  -7.287  0.6055E+02  0.1574E+03
  -7.237  0.6072E+02  0.1604E+03
  -7.187  0.5788E+02  0.1633E+03
  -7.137  0.5286E+02  0.1660E+03
  -7.087  0.4679E+02  0.1683E+03
  -7.037  0.4108E+02  0.1704E+03
  -6.987  0.3735E+02  0.1722E+03
  -6.937  0.3681E+02  0.1741E+03
  -6.887  0.3953E+02  0.1760E+03
  -6.837  0.4438E+02  0.1783E+03
  -6.787  0.4969E+02  0.1807E+03
  -6.737  0.5381E+02  0.1834E+03
  -6.687  0.5522E+02  0.1862E+03
  -6.637  0.5342E+02  0.1889E+03
  -6.587  0.4978E+02  0.1914E+03
  -6.537  0.4687E+02  0.1937E+03
  -6.487  0.4667E+02  0.1960E+03
  -6.437  0.4947E+02  0.1985E+03
  -6.387  0.5422E+02  0.2012E+03
  -6.337  0.5954E+02  0.2042E+03
  -6.287  0.6410E+02  0.2074E+03
  -6.237  0.6609E+02  0.2107E+03
  -6.187  0.6359E+02  0.2139E+03
  -6.137  0.5606E+02  0.2167E+03
  -6.087  0.4502E+02  0.2189E+03
  -6.037  0.3290E+02  0.2206E+03
  -5.987  0.2180E+02  0.2217E+03
  -5.937  0.1304E+02  0.2223E+03
  -5.887  0.7093E+01  0.2227E+03
  -5.837  0.3675E+01  0.2229E+03
  -5.787  0.2150E+01  0.2230E+03
  -5.737  0.2109E+01  0.2231E+03
  -5.687  0.3449E+01  0.2232E+03
  -5.637  0.5859E+01  0.2235E+03
  -5.587  0.8359E+01  0.2240E+03
  -5.537  0.9659E+01  0.2244E+03
  -5.487  0.9111E+01  0.2249E+03
  -5.437  0.7166E+01  0.2253E+03
  -5.387  0.4846E+01  0.2255E+03
  -5.337  0.2981E+01  0.2256E+03
  -5.287  0.1938E+01  0.2257E+03
  -5.237  0.1708E+01  0.2258E+03
  -5.187  0.1979E+01  0.2259E+03
  -5.137  0.2275E+01  0.2260E+03
  -5.087  0.2274E+01  0.2262E+03
  -5.037  0.2014E+01  0.2263E+03
  -4.987  0.1716E+01  0.2263E+03
  -4.937  0.1549E+01  0.2264E+03
  -4.887  0.1746E+01  0.2265E+03
  -4.837  0.2779E+01  0.2266E+03
  -4.787  0.5077E+01  0.2269E+03
  -4.737  0.8290E+01  0.2273E+03
  -4.687  0.1100E+02  0.2279E+03
  -4.637  0.1162E+02  0.2284E+03
  -4.587  0.9769E+01  0.2289E+03
  -4.537  0.6686E+01  0.2293E+03
  -4.487  0.4037E+01  0.2295E+03
  -4.437  0.2620E+01  0.2296E+03
  -4.387  0.2165E+01  0.2297E+03
  -4.337  0.2012E+01  0.2298E+03
  -4.287  0.1766E+01  0.2299E+03
  -4.237  0.1484E+01  0.2300E+03
  -4.187  0.1465E+01  0.2300E+03
  -4.137  0.1893E+01  0.2301E+03
  -4.087  0.2658E+01  0.2303E+03
  -4.037  0.3473E+01  0.2304E+03
  -3.987  0.4078E+01  0.2306E+03
  -3.937  0.4285E+01  0.2309E+03
  -3.887  0.4007E+01  0.2311E+03
  -3.837  0.3404E+01  0.2312E+03
  -3.787  0.2895E+01  0.2314E+03
  -3.737  0.2961E+01  0.2315E+03
  -3.687  0.3893E+01  0.2317E+03
  -3.637  0.5569E+01  0.2320E+03
  -3.587  0.7333E+01  0.2324E+03
  -3.537  0.8257E+01  0.2328E+03
  -3.487  0.7766E+01  0.2332E+03
  -3.437  0.6118E+01  0.2335E+03
  -3.387  0.4232E+01  0.2337E+03
  -3.337  0.2964E+01  0.2338E+03
  -3.287  0.2587E+01  0.2340E+03
  -3.237  0.2889E+01  0.2341E+03
  -3.187  0.3490E+01  0.2343E+03
  -3.137  0.4004E+01  0.2345E+03
  -3.087  0.4143E+01  0.2347E+03
  -3.037  0.3835E+01  0.2349E+03
  -2.987  0.3244E+01  0.2350E+03
  -2.937  0.2625E+01  0.2352E+03
  -2.887  0.2137E+01  0.2353E+03
  -2.837  0.1802E+01  0.2354E+03
  -2.787  0.1615E+01  0.2355E+03
  -2.737  0.1645E+01  0.2355E+03
  -2.687  0.1929E+01  0.2356E+03
  -2.637  0.2315E+01  0.2357E+03
  -2.587  0.2617E+01  0.2359E+03
  -2.537  0.2960E+01  0.2360E+03
  -2.487  0.3743E+01  0.2362E+03
  -2.437  0.5190E+01  0.2365E+03
  -2.387  0.7090E+01  0.2368E+03
  -2.337  0.8967E+01  0.2373E+03
  -2.287  0.1027E+02  0.2378E+03
  -2.237  0.1046E+02  0.2383E+03
  -2.187  0.9344E+01  0.2388E+03
  -2.137  0.7295E+01  0.2391E+03
  -2.087  0.5071E+01  0.2394E+03
  -2.037  0.3241E+01  0.2396E+03
  -1.987  0.1941E+01  0.2397E+03
  -1.937  0.1071E+01  0.2397E+03
  -1.887  0.5288E+00  0.2397E+03
  -1.837  0.2754E+00  0.2398E+03
  -1.787  0.3061E+00  0.2398E+03
  -1.737  0.6364E+00  0.2398E+03
  -1.687  0.1222E+01  0.2399E+03
  -1.637  0.1841E+01  0.2400E+03
  -1.587  0.2173E+01  0.2401E+03
  -1.537  0.2127E+01  0.2402E+03
  -1.487  0.1996E+01  0.2403E+03
  -1.437  0.2159E+01  0.2404E+03
  -1.387  0.2664E+01  0.2405E+03
  -1.337  0.3242E+01  0.2407E+03
  -1.287  0.3640E+01  0.2409E+03
  -1.237  0.3797E+01  0.2410E+03
  -1.187  0.3742E+01  0.2412E+03
  -1.137  0.3454E+01  0.2414E+03
  -1.087  0.2879E+01  0.2415E+03
  -1.037  0.2062E+01  0.2416E+03
  -0.987  0.1218E+01  0.2417E+03
  -0.937  0.6018E+00  0.2417E+03
  -0.887  0.3344E+00  0.2418E+03
  -0.837  0.4067E+00  0.2418E+03
  -0.787  0.7551E+00  0.2418E+03
  -0.737  0.1263E+01  0.2419E+03
  -0.687  0.1744E+01  0.2420E+03
  -0.637  0.2034E+01  0.2421E+03
  -0.587  0.2126E+01  0.2422E+03
  -0.537  0.2196E+01  0.2423E+03
  -0.487  0.2481E+01  0.2424E+03
  -0.437  0.3114E+01  0.2426E+03
  -0.387  0.4028E+01  0.2428E+03
  -0.337  0.5001E+01  0.2430E+03
  -0.287  0.5844E+01  0.2433E+03
  -0.237  0.6552E+01  0.2436E+03
  -0.187  0.7190E+01  0.2440E+03
  -0.137  0.7675E+01  0.2444E+03
  -0.087  0.7780E+01  0.2448E+03
  -0.037  0.7436E+01  0.2451E+03
   0.013  0.6955E+01  0.2455E+03
   0.063  0.6727E+01  0.2458E+03
   0.113  0.6689E+01  0.2462E+03
   0.163  0.6367E+01  0.2465E+03
   0.213  0.5593E+01  0.2468E+03
   0.263  0.4910E+01  0.2470E+03
   0.313  0.5007E+01  0.2472E+03
   0.363  0.5852E+01  0.2475E+03
   0.413  0.6719E+01  0.2479E+03
   0.463  0.7039E+01  0.2482E+03
   0.513  0.6872E+01  0.2486E+03
   0.563  0.6588E+01  0.2489E+03
   0.613  0.6587E+01  0.2492E+03
   0.663  0.7388E+01  0.2496E+03
   0.713  0.9398E+01  0.2501E+03
   0.763  0.1222E+02  0.2507E+03
   0.813  0.1451E+02  0.2514E+03
   0.863  0.1493E+02  0.2522E+03
   0.913  0.1320E+02  0.2528E+03
   0.963  0.1017E+02  0.2533E+03
   1.013  0.7065E+01  0.2537E+03
   1.063  0.4964E+01  0.2539E+03
   1.113  0.4562E+01  0.2542E+03
   1.163  0.5915E+01  0.2544E+03
   1.213  0.8221E+01  0.2549E+03
   1.263  0.1019E+02  0.2554E+03
   1.313  0.1099E+02  0.2559E+03
   1.363  0.1080E+02  0.2565E+03
   1.413  0.1027E+02  0.2570E+03
   1.463  0.9708E+01  0.2575E+03
   1.513  0.9109E+01  0.2579E+03
   1.563  0.8596E+01  0.2583E+03
   1.613  0.8326E+01  0.2588E+03
   1.663  0.8109E+01  0.2592E+03
   1.713  0.7643E+01  0.2595E+03
   1.763  0.7035E+01  0.2599E+03
   1.813  0.6817E+01  0.2602E+03
   1.863  0.7551E+01  0.2606E+03
   1.913  0.9499E+01  0.2611E+03
   1.963  0.1238E+02  0.2617E+03
   2.013  0.1541E+02  0.2625E+03
   2.063  0.1778E+02  0.2634E+03
   2.113  0.1899E+02  0.2643E+03
   2.163  0.1876E+02  0.2653E+03
   2.213  0.1692E+02  0.2661E+03
   2.263  0.1361E+02  0.2668E+03
   2.313  0.9649E+01  0.2673E+03
   2.363  0.6208E+01  0.2676E+03
   2.413  0.4110E+01  0.2678E+03
   2.463  0.3443E+01  0.2680E+03
   2.513  0.3898E+01  0.2681E+03
   2.563  0.5338E+01  0.2684E+03
   2.613  0.7749E+01  0.2688E+03
   2.663  0.1067E+02  0.2693E+03
   2.713  0.1309E+02  0.2700E+03
   2.763  0.1420E+02  0.2707E+03
   2.813  0.1388E+02  0.2714E+03
   2.863  0.1240E+02  0.2720E+03
   2.913  0.1018E+02  0.2725E+03
   2.963  0.7864E+01  0.2729E+03
   3.013  0.6088E+01  0.2732E+03
   3.063  0.4964E+01  0.2735E+03
   3.113  0.4079E+01  0.2737E+03
   3.163  0.3058E+01  0.2738E+03
   3.213  0.1937E+01  0.2739E+03
   3.263  0.9941E+00  0.2740E+03
   3.313  0.4039E+00  0.2740E+03
   3.363  0.1282E+00  0.2740E+03
   3.413  0.3154E-01  0.2740E+03
   3.463  0.5980E-02  0.2740E+03
   3.513  0.8708E-03  0.2740E+03
